# wavelength flux
       2559.0700    0.0077049987
       2559.9599     0.093857707
       2560.8498     0.033286179
       2561.7398     0.063394634
       2562.6297   -0.0016942791
       2563.5196     0.021302142
       2564.4095    -0.014337248
       2565.2995     0.040354906
       2566.1894     0.048603670
       2567.0793     0.070850799
       2567.9693      0.12794293
       2568.8592      0.12365757
       2569.7491     0.051507068
       2570.6391     0.059247576
       2571.5290     0.075096097
       2572.4189     0.059421296
       2573.3088     0.021487369
       2574.1988     0.063570800
       2575.0887     0.079787558
       2575.9786     0.080700067
       2576.8686     0.040961932
       2577.7585     0.057975172
       2578.6484     0.054544771
       2579.5383     0.037887756
       2580.4283     0.031031380
       2581.3182     0.095157260
       2582.2081     0.049299185
       2583.0981     0.020032684
       2583.9880     0.062403585
       2584.8779     0.035721740
       2585.7678     0.026202437
       2586.6578    -0.013979263
       2587.5477    -0.010659476
       2588.4376     0.053856891
       2589.3276     0.062540936
       2590.2175     0.088058549
       2591.1074     0.080175336
       2591.9974     0.077866522
       2592.8873      0.12080669
       2593.7772      0.12966628
       2594.6671     0.097269164
       2595.5571     0.055243636
       2596.4470     0.065933166
       2597.3369      0.10828768
       2598.2269     0.068926681
       2599.1168    0.0051483181
       2600.0067     0.026414426
       2600.8966     0.044778307
       2601.7866     0.019185200
       2602.6765     0.052451635
       2603.5664     0.074066872
       2604.4564     0.082795777
       2605.3463     0.051088380
       2606.2362     0.049361313
       2607.1262    0.0094331104
       2608.0161      0.10403426
       2608.9060     0.020302830
       2609.7959     0.025653480
       2610.6859     0.037312133
       2611.5758     0.051189886
       2612.4657     0.065172981
       2613.3557     0.026974711
       2614.2456     0.076954135
       2615.1355     0.048384330
       2616.0254     0.081398420
       2616.9154      0.10161353
       2617.8053     0.075596291
       2618.6952     0.059400708
       2619.5852     0.078231197
       2620.4751     0.087389003
       2621.3650     0.097330909
       2622.2550      0.10192057
       2623.1449     0.078240669
       2624.0348     0.050579441
       2624.9247     0.069902722
       2625.8147     0.037374810
       2626.7046   -0.0063024213
       2627.5945     0.049111455
       2628.4845     0.076407124
       2629.3744     0.065015644
       2630.2643     0.067197487
       2631.1542     0.083341312
       2632.0442     0.074633241
       2632.9341     0.062370851
       2633.8240     0.027785430
       2634.7140     0.057925937
       2635.6039     0.084838464
       2636.4938     0.082766965
       2637.3837      0.10322919
       2638.2737     0.089146096
       2639.1636     0.073849157
       2640.0535     0.040240551
       2640.9435     0.078351628
       2641.8334     0.067320200
       2642.7233     0.099866473
       2643.6133     0.076862775
       2644.5032     0.081055903
       2645.3931     0.085104743
       2646.2830      0.10959398
       2647.1730     0.070463738
       2648.0629     0.094789244
       2648.9528     0.084219416
       2649.8428     0.058924223
       2650.7327     0.083564393
       2651.6226      0.12006240
       2652.5125      0.11977531
       2653.4025      0.10226899
       2654.2924     0.072015057
       2655.1823     0.056807315
       2656.0723     0.043299774
       2656.9622     0.037289172
       2657.8521     0.032417890
       2658.7421     0.067420390
       2659.6320     0.055202961
       2660.5219     0.059665605
       2661.4118     0.085902408
       2662.3018     0.079252696
       2663.1917     0.092961552
       2664.0816     0.073707076
       2664.9716     0.053555221
       2665.8615     0.093490141
       2666.7514      0.10929512
       2667.6413     0.064522251
       2668.5313     0.079282811
       2669.4212     0.056526466
       2670.3111     0.048264670
       2671.2011     0.077247392
       2672.0910      0.10550200
       2672.9809     0.084760916
       2673.8709     0.074855708
       2674.7608     0.041228771
       2675.6507     0.040555982
       2676.5406     0.048545943
       2677.4306     0.093142414
       2678.3205     0.072513476
       2679.2104     0.051635507
       2680.1004     0.058021668
       2680.9903     0.063387252
       2681.8802     0.070459249
       2682.7701     0.096854667
       2683.6601     0.085634745
       2684.5500     0.079584941
       2685.4399     0.061253792
       2686.3299     0.090384659
       2687.2198     0.092509638
       2688.1097     0.051331316
       2688.9996     0.048188713
       2689.8896     0.068670310
       2690.7795     0.081878515
       2691.6694     0.046443642
       2692.5594      0.12791861
       2693.4493     0.078046421
       2694.3392     0.071224990
       2695.2292     0.072158480
       2696.1191     0.094488834
       2697.0090     0.063358551
       2697.8989     0.086969768
       2698.7889      0.11513892
       2699.6788     0.091586511
       2700.5687     0.058232012
       2701.4587      0.12221953
       2702.3486     0.099417934
       2703.2385     0.090768467
       2704.1284     0.070034345
       2705.0184     0.090925238
       2705.9083     0.093450657
       2706.7982     0.092315992
       2707.6882     0.051932343
       2708.5781     0.081101822
       2709.4680      0.11248688
       2710.3580      0.10402905
       2711.2479     0.088668534
       2712.1378      0.13142048
       2713.0277      0.13426027
       2713.9177     0.077883864
       2714.8076      0.10867719
       2715.6975      0.11352160
       2716.5875     0.092940195
       2717.4774     0.063668410
       2718.3673     0.076221727
       2719.2572      0.11028771
       2720.1472     0.093080568
       2721.0371     0.065867101
       2721.9270     0.089974901
       2722.8170     0.095322316
       2723.7069     0.073075141
       2724.5968     0.051735600
       2725.4868     0.059319777
       2726.3767     0.087788848
       2727.2666     0.089137292
       2728.1565     0.084656715
       2729.0465     0.098811042
       2729.9364     0.061170338
       2730.8263     0.072281074
       2731.7163     0.085905849
       2732.6062     0.084758206
       2733.4961     0.075891677
       2734.3860     0.081984331
       2735.2760     0.092816709
       2736.1659     0.092090350
       2737.0558     0.092288177
       2737.9458     0.083303200
       2738.8357     0.054717605
       2739.7256     0.081508124
       2740.6155     0.081159979
       2741.5055     0.097815464
       2742.3954     0.081450295
       2743.2853     0.080599174
       2744.1753     0.092220732
       2745.0652     0.059734763
       2745.9551     0.096374878
       2746.8451     0.098096829
       2747.7350     0.097426937
       2748.6249     0.091183424
       2749.5148     0.082311153
       2750.4048     0.057281053
       2751.2947     0.088226980
       2752.1846      0.11920697
       2753.0746     0.088037800
       2753.9645     0.084487423
       2754.8544      0.11243308
       2755.7443     0.089240206
       2756.6343     0.093096258
       2757.5242     0.096675225
       2758.4141     0.072914141
       2759.3041     0.050318448
       2760.1940     0.057621009
       2761.0839     0.065827858
       2761.9739     0.031197581
       2762.8638     0.045182482
       2763.7537     0.069738740
       2764.6436     0.055508171
       2765.5336     0.041291224
       2766.4235     0.056021979
       2767.3134     0.091734813
       2768.2034      0.11310241
       2769.0933     0.074566801
       2769.9832     0.066458679
       2770.8731     0.056658490
       2771.7631     0.067565488
       2772.6530     0.091730697
       2773.5429     0.094863545
       2774.4329     0.077194399
       2775.3228     0.076556794
       2776.2127     0.075449052
       2777.1026     0.075702145
       2777.9926     0.088672319
       2778.8825     0.078454413
       2779.7724     0.071385507
       2780.6624     0.077250334
       2781.5523     0.047930958
       2782.4422     0.037862164
       2783.3322     0.066702680
       2784.2221     0.039681761
       2785.1120     0.051993849
       2786.0019     0.091926686
       2786.8919     0.073437718
       2787.7818     0.068802591
       2788.6717     0.062966719
       2789.5617     0.074467199
       2790.4516     0.093095512
       2791.3415      0.10602828
       2792.2314     0.080997501
       2793.1214     0.073841731
       2794.0113     0.094852939
       2794.9012      0.10852467
       2795.7912     0.069247966
       2796.6811     0.071983637
       2797.5710     0.089226872
       2798.4610     0.088206748
       2799.3509      0.10779726
       2800.2408      0.10775891
       2801.1307     0.096986321
       2802.0207     0.064791669
       2802.9106     0.077945157
       2803.8005     0.094419983
       2804.6905     0.088562562
       2805.5804     0.090745785
       2806.4703     0.080649349
       2807.3602     0.082961715
       2808.2502     0.083589061
       2809.1401     0.069768582
       2810.0300     0.087955817
       2810.9200      0.10745006
       2811.8099     0.099829844
       2812.6998      0.10665558
       2813.5898      0.10583120
       2814.4797      0.10853005
       2815.3696      0.11941028
       2816.2595      0.11367218
       2817.1495     0.093119005
       2818.0394      0.11065538
       2818.9293     0.099597934
       2819.8193      0.13215315
       2820.7092      0.12284472
       2821.5991      0.12733039
       2822.4890     0.095565515
       2823.3790      0.11346613
       2824.2689      0.11845565
       2825.1588      0.10358607
       2826.0488     0.097772231
       2826.9387      0.10613790
       2827.8286     0.086257138
       2828.7185     0.074961741
       2829.6085     0.067205308
       2830.4984     0.075879898
       2831.3883     0.090317586
       2832.2783     0.085048612
       2833.1682     0.092669533
       2834.0581     0.091188868
       2834.9481     0.095747053
       2835.8380     0.095847480
       2836.7279     0.095178119
       2837.6178      0.10583992
       2838.5078     0.077419794
       2839.3977     0.072346737
       2840.2876     0.095770837
       2841.1776     0.080667121
       2842.0675     0.084337051
       2842.9574     0.065855766
       2843.8473     0.089459290
       2844.7373     0.094086073
       2845.6272     0.093461129
       2846.5171     0.094617265
       2847.4071     0.065706941
       2848.2970     0.078316865
       2849.1869      0.10882846
       2850.0769     0.090236104
       2850.9668     0.077304801
       2851.8567     0.082275646
       2852.7466     0.090661484
       2853.6366      0.12338422
       2854.5265     0.084983729
       2855.4164     0.074512536
       2856.3064     0.068996141
       2857.1963     0.078814641
       2858.0862     0.088501794
       2858.9761     0.087384734
       2859.8661     0.081697391
       2860.7560     0.083229398
       2861.6459     0.096680096
       2862.5359      0.11320323
       2863.4258      0.12900133
       2864.3157      0.13363786
       2865.2057      0.10720009
       2866.0956      0.10073238
       2866.9855     0.091561651
       2867.8754     0.096230466
       2868.7654      0.12353250
       2869.6553      0.13193560
       2870.5452      0.11343802
       2871.4352     0.083602069
       2872.3251     0.097410548
       2873.2150      0.10213011
       2874.1049      0.11338053
       2874.9949      0.10236825
       2875.8848     0.097970060
       2876.7747     0.098992257
       2877.6647     0.092569054
       2878.5546     0.088281981
       2879.4445     0.074375871
       2880.3344     0.090504035
       2881.2244     0.085521555
       2882.1143     0.069306554
       2883.0042     0.065303528
       2883.8942     0.091829969
       2884.7841      0.11088223
       2885.6740     0.088696294
       2886.5640     0.090812533
       2887.4539     0.099627570
       2888.3438     0.082728791
       2889.2337      0.10478426
       2890.1237      0.11604005
       2891.0136     0.077293177
       2891.9035      0.11252540
       2892.7935      0.10228370
       2893.6834     0.091944529
       2894.5733     0.082058136
       2895.4632     0.093621281
       2896.3532     0.093017752
       2897.2431      0.11000568
       2898.1330      0.10470158
       2899.0230      0.11124300
       2899.9129      0.12987456
       2900.8028     0.097944994
       2901.6928     0.098167927
       2902.5827     0.094329695
       2903.4726     0.094287951
       2904.3625      0.10443889
       2905.2525     0.076924877
       2906.1424     0.084737505
       2907.0323     0.091670299
       2907.9223      0.10518059
       2908.8122     0.086587106
       2909.7021     0.077567399
       2910.5920     0.084210879
       2911.4820     0.069852635
       2912.3719      0.10519730
       2913.2618      0.10328017
       2914.1518      0.10187137
       2915.0417      0.10709068
       2915.9316      0.11078615
       2916.8216     0.094438439
       2917.7115     0.073656783
       2918.6014     0.073432085
       2919.4913     0.080371445
       2920.3813     0.088252136
       2921.2712     0.088902401
       2922.1611     0.085045971
       2923.0511     0.094943534
       2923.9410     0.086662878
       2924.8309     0.092599771
       2925.7208      0.10370210
       2926.6108      0.11192166
       2927.5007      0.11844575
       2928.3906      0.12365701
       2929.2806     0.077863628
       2930.1705     0.093906776
       2931.0604     0.091582183
       2931.9503     0.096286268
       2932.8403      0.12313090
       2933.7302      0.14480808
       2934.6201      0.15164962
       2935.5101      0.10910340
       2936.4000     0.098996347
       2937.2899      0.12105233
       2938.1799      0.12348640
       2939.0698      0.12100177
       2939.9597      0.11927397
       2940.8496      0.11523886
       2941.7396      0.11304024
       2942.6295      0.10883232
       2943.5194      0.10834207
       2944.4094      0.11092228
       2945.2993      0.12820833
       2946.1892      0.12684283
       2947.0791      0.11458236
       2947.9691      0.10557012
       2948.8590     0.095709554
       2949.7489      0.10248797
       2950.6389     0.099362800
       2951.5288      0.10827938
       2952.4187      0.11536550
       2953.3087     0.099964864
       2954.1986     0.095298987
       2955.0885      0.10654401
       2955.9784      0.10600506
       2956.8684      0.11659447
       2957.7583     0.088212328
       2958.6482      0.10128299
       2959.5382      0.11312489
       2960.4281      0.10193884
       2961.3180      0.10961463
       2962.2079      0.10473446
       2963.0979     0.096554540
       2963.9878      0.12550616
       2964.8777      0.10097637
       2965.7677      0.11067983
       2966.6576      0.11395096
       2967.5475      0.12758791
       2968.4374      0.11097453
       2969.3274      0.12870161
       2970.2173      0.13736598
       2971.1072      0.11932629
       2971.9972      0.15001463
       2972.8871      0.13690658
       2973.7770      0.12172686
       2974.6670      0.11543695
       2975.5569      0.10566671
       2976.4468      0.10485942
       2977.3367      0.10053243
       2978.2267      0.10509317
       2979.1166      0.10038941
       2980.0065      0.12034526
       2980.8965     0.096714351
       2981.7864      0.10960086
       2982.6763     0.096729588
       2983.5662      0.13467559
       2984.4562      0.13885557
       2985.3461      0.12357158
       2986.2360      0.14882860
       2987.1260      0.13886884
       2988.0159      0.12891917
       2988.9058      0.11435999
       2989.7958      0.12422012
       2990.6857      0.14678234
       2991.5756      0.12993188
       2992.4655      0.11142241
       2993.3555      0.10903151
       2994.2454      0.15586786
       2995.1353      0.14430361
       2996.0253      0.11654740
       2996.9152      0.11297799
       2997.8051      0.13524750
       2998.6950      0.13577814
       2999.5850      0.17183971
       3000.4749      0.13805663
       3001.3648      0.13963083
       3002.2548      0.12097295
       3003.1447      0.14052795
       3004.0346      0.13783651
       3004.9246      0.13182813
       3005.8145      0.13021474
       3006.7044      0.12301127
       3007.5943      0.12512902
       3008.4843      0.14264401
       3009.3742      0.13775121
       3010.2641      0.13039612
       3011.1541      0.15675662
       3012.0440      0.14802354
       3012.9339      0.15979295
       3013.8238      0.12035007
       3014.7138      0.12751480
       3015.6037      0.11739967
       3016.4936      0.15060537
       3017.3836      0.15175540
       3018.2735      0.14719296
       3019.1634      0.12229496
       3020.0533      0.14995964
       3020.9433      0.15634232
       3021.8332      0.13411385
       3022.7231      0.14079430
       3023.6131      0.14371132
       3024.5030      0.13327430
       3025.3929      0.14418231
       3026.2829      0.15591850
       3027.1728      0.13072122
       3028.0627      0.13100324
       3028.9526      0.13731831
       3029.8426      0.13332485
       3030.7325      0.13886848
       3031.6224      0.14682175
       3032.5124      0.16751177
       3033.4023      0.13184991
       3034.2922      0.13756469
       3035.1821      0.15161293
       3036.0721      0.11987421
       3036.9620      0.13027156
       3037.8519      0.11837146
       3038.7419      0.12971991
       3039.6318      0.12311678
       3040.5217      0.13932489
       3041.4117      0.12094076
       3042.3016      0.14085073
       3043.1915      0.14435039
       3044.0814      0.15369919
       3044.9714      0.14080776
       3045.8613      0.12958897
       3046.7512      0.13963657
       3047.6412      0.13607934
       3048.5311      0.15786300
       3049.4210      0.14541285
       3050.3109      0.13876311
       3051.2009      0.13360421
       3052.0908      0.12269615
       3052.9807      0.13256370
       3053.8707      0.13863388
       3054.7606      0.13712205
       3055.6505      0.12297373
       3056.5405      0.13218000
       3057.4304      0.12522432
       3058.3203      0.10804188
       3059.2102      0.10534393
       3060.1002      0.11107595
       3060.9901      0.15734133
       3061.8800      0.10720602
       3062.7700      0.14410031
       3063.6599      0.14621824
       3064.5498      0.13581195
       3065.4397      0.14159796
       3066.3297      0.12665341
       3067.2196      0.12865389
       3068.1095      0.14747719
       3068.9995      0.10907546
       3069.8894      0.13078487
       3070.7793      0.14343633
       3071.6692      0.14446422
       3072.5592      0.11790905
       3073.4491      0.16098262
       3074.3390      0.14200088
       3075.2290      0.15134111
       3076.1189      0.14580554
       3077.0088      0.13033650
       3077.8988      0.13730914
       3078.7887      0.14243582
       3079.6786      0.13630416
       3080.5685      0.15117074
       3081.4585      0.15999484
       3082.3484      0.17070956
       3083.2383      0.15759758
       3084.1283      0.13325626
       3085.0182      0.14105041
       3085.9081      0.13796520
       3086.7980      0.12629825
       3087.6880      0.13789842
       3088.5779      0.14696211
       3089.4678      0.14423875
       3090.3578      0.14587322
       3091.2477      0.14333531
       3092.1376      0.11888183
       3093.0276      0.11861051
       3093.9175      0.13104049
       3094.8074      0.13908579
       3095.6973      0.12426985
       3096.5873      0.12659567
       3097.4772      0.12947508
       3098.3671      0.13685155
       3099.2571      0.12605296
       3100.1470      0.10647124
       3101.0369      0.12977192
       3101.9268      0.14696608
       3102.8168      0.15879977
       3103.7067      0.16366799
       3104.5966      0.15760847
       3105.4866      0.13610021
       3106.3765      0.12859291
       3107.2664      0.12337885
       3108.1564      0.13332701
       3109.0463      0.13888580
       3109.9362      0.12879687
       3110.8261      0.14546412
       3111.7161      0.11998488
       3112.6060      0.13199552
       3113.4959      0.15324099
       3114.3859      0.14614957
       3115.2758      0.13999890
       3116.1657      0.13986141
       3117.0556      0.13262281
       3117.9456      0.11636537
       3118.8355      0.14814387
       3119.7254      0.16033572
       3120.6154      0.13698875
       3121.5053      0.15568281
       3122.3952      0.12566556
       3123.2851      0.11921254
       3124.1751      0.16201675
       3125.0650      0.13958627
       3125.9549      0.14116373
       3126.8449      0.15798743
       3127.7348      0.16368221
       3128.6247      0.13379262
       3129.5147      0.14092142
       3130.4046      0.15710952
       3131.2945      0.14599701
       3132.1844      0.14493372
       3133.0744      0.13825173
       3133.9643      0.12511259
       3134.8542      0.15412599
       3135.7442      0.14208706
       3136.6341      0.13567664
       3137.5240      0.16014015
       3138.4139      0.15345437
       3139.3039      0.14750968
       3140.1938      0.14392882
       3141.0837      0.15602980
       3141.9737      0.15081464
       3142.8636      0.16107678
       3143.7535      0.14176675
       3144.6435      0.14940150
       3145.5334      0.14488744
       3146.4233      0.13717717
       3147.3132      0.14512421
       3148.2032      0.14151402
       3149.0931      0.17009199
       3149.9830      0.16665575
       3150.8730      0.15767861
       3151.7629      0.14350678
       3152.6528      0.13920751
       3153.5427      0.15960313
       3154.4327      0.12162380
       3155.3226      0.14553826
       3156.2125      0.12715917
       3157.1025      0.13995937
       3157.9924      0.13166697
       3158.8823      0.15301279
       3159.7723      0.13308883
       3160.6622      0.14430406
       3161.5521      0.13341191
       3162.4420      0.13189395
       3163.3320      0.14897328
       3164.2219      0.15862951
       3165.1118      0.12706064
       3166.0018      0.15264171
       3166.8917      0.15695313
       3167.7816      0.14413945
       3168.6715      0.12367573
       3169.5615      0.13360826
       3170.4514      0.13336928
       3171.3413      0.14340185
       3172.2313      0.13128061
       3173.1212      0.12425173
       3174.0111      0.15484080
       3174.9010      0.17351548
       3175.7910      0.14535090
       3176.6809      0.14527248
       3177.5708      0.14737631
       3178.4608      0.15968770
       3179.3507      0.15615847
       3180.2406      0.13980782
       3181.1306      0.14177069
       3182.0205      0.13382643
       3182.9104      0.13619762
       3183.8003      0.15126090
       3184.6903      0.13726692
       3185.5802      0.13117154
       3186.4701      0.12622714
       3187.3601      0.13610699
       3188.2500      0.15570552
       3189.1399      0.13237695
       3190.0298      0.17491493
       3190.9198      0.15192353
       3191.8097      0.14509629
       3192.6996      0.15538484
       3193.5896      0.15298073
       3194.4795      0.14898978
       3195.3694      0.13485340
       3196.2594      0.13216854
       3197.1493      0.15448916
       3198.0392      0.14203934
       3198.9291      0.14769510
       3199.8191      0.13712256
       3200.7090      0.14110030
       3201.5989      0.15975590
       3202.4889      0.13762207
       3203.3788      0.15294023
       3204.2687      0.14613024
       3205.1586      0.17824109
       3206.0486      0.14639274
       3206.9385      0.15506457
       3207.8284      0.14578024
       3208.7184      0.16344633
       3209.6083      0.15820654
       3210.4982      0.14339548
       3211.3881      0.15448157
       3212.2781      0.14491561
       3213.1680      0.14521396
       3214.0579      0.15652797
       3214.9479      0.16474585
       3215.8378      0.17765413
       3216.7277      0.14108773
       3217.6177      0.14045274
       3218.5076      0.14542165
       3219.3975      0.13538643
       3220.2874      0.15684427
       3221.1774      0.18496392
       3222.0673      0.16524090
       3222.9572      0.14580692
       3223.8472      0.17096062
       3224.7371      0.14778871
       3225.6270      0.14543710
       3226.5169      0.17904591
       3227.4069      0.15765639
       3228.2968      0.16425590
       3229.1867      0.17163715
       3230.0767      0.16797403
       3230.9666      0.16782123
       3231.8565      0.15843370
       3232.7465      0.14237929
       3233.6364      0.16502003
       3234.5263      0.14697515
       3235.4162      0.14605481
       3236.3062      0.16426668
       3237.1961      0.14741408
       3238.0860      0.16832994
       3238.9760      0.17612608
       3239.8659      0.14731971
       3240.7558      0.15799489
       3241.6457      0.16993379
       3242.5357      0.17240607
       3243.4256      0.16425046
       3244.3155      0.15984959
       3245.2055      0.16840056
       3246.0954      0.18805409
       3246.9853      0.16515474
       3247.8753      0.16618460
       3248.7652      0.14697062
       3249.6551      0.16088586
       3250.5450      0.15193332
       3251.4350      0.14172760
       3252.3249      0.16855003
       3253.2148      0.18133191
       3254.1048      0.18670508
       3254.9947      0.16956039
       3255.8846      0.12916583
       3256.7745      0.15975168
       3257.6645      0.17758963
       3258.5544      0.17703192
       3259.4443      0.15890310
       3260.3343      0.17355835
       3261.2242      0.18250286
       3262.1141      0.17225817
       3263.0040      0.14687164
       3263.8940      0.16510014
       3264.7839      0.17532046
       3265.6738      0.16432573
       3266.5638      0.16193551
       3267.4537      0.16032815
       3268.3436      0.17871667
       3269.2336      0.18500106
       3270.1235      0.18649496
       3271.0134      0.17995965
       3271.9033      0.16937074
       3272.7933      0.16488096
       3273.6832      0.17549656
       3274.5731      0.16558340
       3275.4631      0.16896765
       3276.3530      0.17414290
       3277.2429      0.16185621
       3278.1328      0.15649665
       3279.0228      0.15823956
       3279.9127      0.15601346
       3280.8026      0.17290122
       3281.6926      0.18187196
       3282.5825      0.16298575
       3283.4724      0.17110177
       3284.3624      0.17641967
       3285.2523      0.14673606
       3286.1422      0.17282587
       3287.0321      0.17828378
       3287.9221      0.17079875
       3288.8120      0.15662363
       3289.7019      0.15854157
       3290.5919      0.17538816
       3291.4818      0.17394144
       3292.3717      0.18175757
       3293.2616      0.19120331
       3294.1516      0.19476462
       3295.0415      0.22158082
       3295.9314      0.17013920
       3296.8214      0.15575802
       3297.7113      0.17464179
       3298.6012      0.17460364
       3299.4912      0.17056548
       3300.3811      0.17845895
       3301.2710      0.18122279
       3302.1609      0.18402254
       3303.0509      0.17405377
       3303.9408      0.17292916
       3304.8307      0.19961315
       3305.7207      0.18210955
       3306.6106      0.19413798
       3307.5005      0.17360147
       3308.3904      0.18261627
       3309.2804      0.15605736
       3310.1703      0.18081973
       3311.0602      0.19525031
       3311.9502      0.17858019
       3312.8401      0.17861013
       3313.7300      0.19763359
       3314.6199      0.18488418
       3315.5099      0.18526172
       3316.3998      0.19470391
       3317.2897      0.18691492
       3318.1797      0.18997652
       3319.0696      0.17968779
       3319.9595      0.17116284
       3320.8495      0.18987228
       3321.7394      0.20019687
       3322.6293      0.22492400
       3323.5192      0.16933681
       3324.4092      0.20361965
       3325.2991      0.18381555
       3326.1890      0.20442019
       3327.0790      0.18734925
       3327.9689      0.19508241
       3328.8588      0.21289390
       3329.7487      0.18190639
       3330.6387      0.20483658
       3331.5286      0.23242715
       3332.4185      0.17461358
       3333.3085      0.21222435
       3334.1984      0.20046861
       3335.0883      0.21735591
       3335.9783      0.18350100
       3336.8682      0.16697048
       3337.7581      0.20491060
       3338.6480      0.18400439
       3339.5380      0.18490267
       3340.4279      0.18663873
       3341.3178      0.19064729
       3342.2078      0.17748350
       3343.0977      0.18774216
       3343.9876      0.18412567
       3344.8775      0.20139027
       3345.7675      0.20845977
       3346.6574      0.19812862
       3347.5473      0.20212261
       3348.4373      0.20195474
       3349.3272      0.22142878
       3350.2171      0.19504594
       3351.1071      0.17117578
       3351.9970      0.17920426
       3352.8869      0.18971796
       3353.7768      0.18086190
       3354.6668      0.20346968
       3355.5567      0.19545483
       3356.4466      0.20311833
       3357.3366      0.23496990
       3358.2265      0.20752744
       3359.1164      0.20443573
       3360.0063      0.21365759
       3360.8963      0.18576233
       3361.7862      0.22276832
       3362.6761      0.19896643
       3363.5661      0.19817476
       3364.4560      0.16555057
       3365.3459      0.16214989
       3366.2358      0.18097051
       3367.1258      0.18195206
       3368.0157      0.20398253
       3368.9056      0.18205949
       3369.7956      0.19754829
       3370.6855      0.17535396
       3371.5754      0.19143573
       3372.4654      0.18176426
       3373.3553      0.19393064
       3374.2452      0.19397422
       3375.1351      0.19757300
       3376.0251      0.20913516
       3376.9150      0.19150966
       3377.8049      0.20512390
       3378.6949      0.20207753
       3379.5848      0.19659696
       3380.4747      0.19363832
       3381.3646      0.18168940
       3382.2546      0.20714318
       3383.1445      0.20660560
       3384.0344      0.17978467
       3384.9244      0.19750974
       3385.8143      0.19560539
       3386.7042      0.18782607
       3387.5942      0.17926078
       3388.4841      0.20964294
       3389.3740      0.20573651
       3390.2639      0.20029131
       3391.1539      0.20462111
       3392.0438      0.21029849
       3392.9337      0.20058011
       3393.8237      0.17886847
       3394.7136      0.17185976
       3395.6035      0.19035601
       3396.4934      0.20071314
       3397.3834      0.17841197
       3398.2733      0.21301772
       3399.1632      0.19047216
       3400.0532      0.21039635
       3400.9431      0.18538410
       3401.8330      0.20916526
       3402.7229      0.24484732
       3403.6129      0.24403694
       3404.5028      0.21999852
       3405.3927      0.19415298
       3406.2827      0.20435471
       3407.1726      0.20040263
       3408.0625      0.18893134
       3408.9525      0.20631049
       3409.8424      0.17966620
       3410.7323      0.24457389
       3411.6222      0.21928581
       3412.5122      0.18854719
       3413.4021      0.21114578
       3414.2920      0.23145756
       3415.1820      0.19711615
       3416.0719      0.20436173
       3416.9618      0.20733959
       3417.8517      0.19454172
       3418.7417      0.21880149
       3419.6316      0.19625154
       3420.5215      0.22093782
       3421.4115      0.23451057
       3422.3014      0.21102543
       3423.1913      0.22614443
       3424.0813      0.23180791
       3424.9712      0.19958437
       3425.8611      0.20132211
       3426.7510      0.19263722
       3427.6410      0.21551176
       3428.5309      0.19517234
       3429.4208      0.20463245
       3430.3108      0.18478933
       3431.2007      0.21883601
       3432.0906      0.23660915
       3432.9805      0.19640627
       3433.8705      0.22227155
       3434.7604      0.21692104
       3435.6503      0.20996138
       3436.5403      0.24366122
       3437.4302      0.21553820
       3438.3201      0.23690227
       3439.2101      0.22679350
       3440.1000      0.25483686
       3440.9899      0.23160470
       3441.8798      0.22880721
       3442.7698      0.21168830
       3443.6597      0.19897748
       3444.5496      0.20090305
       3445.4396      0.22629226
       3446.3295      0.18307158
       3447.2194      0.21047992
       3448.1093      0.21503914
       3448.9993      0.21369835
       3449.8892      0.22914771
       3450.7791      0.22104213
       3451.6691      0.22667950
       3452.5590      0.23421117
       3453.4489      0.23464378
       3454.3388      0.22492965
       3455.2288      0.22258863
       3456.1187      0.21614499
       3457.0086      0.22151842
       3457.8986      0.21344715
       3458.7885      0.22662551
       3459.6784      0.22379755
       3460.5684      0.22861315
       3461.4583      0.20828787
       3462.3482      0.22828574
       3463.2381      0.22353319
       3464.1281      0.22633711
       3465.0180      0.21459158
       3465.9079      0.20576880
       3466.7979      0.23536157
       3467.6878      0.21786308
       3468.5777      0.21043803
       3469.4676      0.23456137
       3470.3576      0.20755098
       3471.2475      0.21042336
       3472.1374      0.22580891
       3473.0274      0.22142167
       3473.9173      0.20657957
       3474.8072      0.21692373
       3475.6972      0.20928765
       3476.5871      0.19013998
       3477.4770      0.22962411
       3478.3669      0.20865257
       3479.2569      0.22082033
       3480.1468      0.20617697
       3481.0367      0.22657137
       3481.9267      0.22920731
       3482.8166      0.22082001
       3483.7065      0.24739380
       3484.5964      0.22453652
       3485.4864      0.23043135
       3486.3763      0.22914684
       3487.2662      0.19757596
       3488.1562      0.22679760
       3489.0461      0.25782130
       3489.9360      0.17032358
       3490.8260      0.21439456
       3491.7159      0.22953981
       3492.6058      0.23910311
       3493.4957      0.22398714
       3494.3857      0.24150886
       3495.2756      0.20977553
       3496.1655      0.22676239
       3497.0555      0.20330261
       3497.9454      0.20800431
       3498.8353      0.21929383
       3499.7252      0.24091628
       3500.6152      0.20731535
       3501.5051      0.21690244
       3502.3950      0.22619419
       3503.2850      0.23934233
       3504.1749      0.23517478
       3505.0648      0.25385055
       3505.9547      0.23374066
       3506.8447      0.21510636
       3507.7346      0.22799852
       3508.6245      0.23882528
       3509.5145      0.21636582
       3510.4044      0.25789174
       3511.2943      0.22531128
       3512.1843      0.23063623
       3513.0742      0.22385524
       3513.9641      0.26601325
       3514.8540      0.22010475
       3515.7440      0.24627649
       3516.6339      0.22175056
       3517.5238      0.24002998
       3518.4138      0.22269278
       3519.3037      0.22264266
       3520.1936      0.23048137
       3521.0835      0.21009684
       3521.9735      0.26535332
       3522.8634      0.23675794
       3523.7533      0.25188258
       3524.6433      0.21559679
       3525.5332      0.21321093
       3526.4231      0.20694286
       3527.3131      0.23627360
       3528.2030      0.21056739
       3529.0929      0.23846968
       3529.9828      0.21396314
       3530.8728      0.23165282
       3531.7627      0.19671188
       3532.6526      0.25142768
       3533.5426      0.25442842
       3534.4325      0.23782594
       3535.3224      0.25708233
       3536.2123      0.23438159
       3537.1023      0.22222393
       3537.9922      0.24480393
       3538.8821      0.24909648
       3539.7721      0.25112168
       3540.6620      0.24912635
       3541.5519      0.21693106
       3542.4419      0.27763034
       3543.3318      0.24155177
       3544.2217      0.25433156
       3545.1116      0.26654331
       3546.0016      0.26143111
       3546.8915      0.25219553
       3547.7814      0.23848513
       3548.6714      0.23237871
       3549.5613      0.20492134
       3550.4512      0.24115219
       3551.3411      0.24914347
       3552.2311      0.25113835
       3553.1210      0.25242890
       3554.0109      0.25968277
       3554.9009      0.22665216
       3555.7908      0.21152877
       3556.6807      0.24760217
       3557.5706      0.27783336
       3558.4606      0.27082152
       3559.3505      0.25810546
       3560.2404      0.23345062
       3561.1304      0.26460753
       3562.0203      0.23157323
       3562.9102      0.24334692
       3563.8002      0.25740131
       3564.6901      0.24394795
       3565.5800      0.23691876
       3566.4699      0.22900348
       3567.3599      0.22526946
       3568.2498      0.22315623
       3569.1397      0.25541921
       3570.0297      0.24415310
       3570.9196      0.25971665
       3571.8095      0.23574017
       3572.6994      0.25090918
       3573.5894      0.25650295
       3574.4793      0.23512229
       3575.3692      0.26200556
       3576.2592      0.22999834
       3577.1491      0.24176418
       3578.0390      0.25673230
       3578.9290      0.25127646
       3579.8189      0.26990692
       3580.7088      0.23489055
       3581.5987      0.25540354
       3582.4887      0.22231710
       3583.3786      0.23950863
       3584.2685      0.25751293
       3585.1585      0.24788495
       3586.0484      0.22963013
       3586.9383      0.24441254
       3587.8282      0.24093097
       3588.7182      0.24254109
       3589.6081      0.26707342
       3590.4980      0.21957566
       3591.3880      0.24979922
       3592.2779      0.25512684
       3593.1678      0.24810388
       3594.0577      0.23502767
       3594.9477      0.22597807
       3595.8376      0.29080943
       3596.7275      0.24608409
       3597.6175      0.26083523
       3598.5074      0.27062875
       3599.3973      0.28903215
       3600.2873      0.25834638
       3601.1772      0.27234831
       3602.0671      0.30288644
       3602.9570      0.26354357
       3603.8470      0.25477458
       3604.7369      0.28906795
       3605.6268      0.25409347
       3606.5168      0.26223126
       3607.4067      0.26123988
       3608.2966      0.27813129
       3609.1865      0.24689838
       3610.0765      0.25118069
       3610.9664      0.24517824
       3611.8563      0.25992161
       3612.7463      0.27820058
       3613.6362      0.24480530
       3614.5261      0.26206184
       3615.4161      0.27668540
       3616.3060      0.27927433
       3617.1959      0.25284898
       3618.0858      0.25440230
       3618.9758      0.23953376
       3619.8657      0.26677756
       3620.7556      0.24737375
       3621.6456      0.27234929
       3622.5355      0.29479607
       3623.4254      0.24096861
       3624.3153      0.29447813
       3625.2053      0.29323039
       3626.0952      0.27619067
       3626.9851      0.32439707
       3627.8751      0.30512284
       3628.7650      0.26855566
       3629.6549      0.27947020
       3630.5449      0.28614721
       3631.4348      0.25040972
       3632.3247      0.26322955
       3633.2146      0.25445008
       3634.1046      0.26968023
       3634.9945      0.30820458
       3635.8844      0.27235785
       3636.7744      0.28930975
       3637.6643      0.26044240
       3638.5542      0.31807983
       3639.4441      0.32688711
       3640.3341      0.25602282
       3641.2240      0.30071043
       3642.1139      0.27814056
       3643.0039      0.31732623
       3643.8938      0.27970318
       3644.7837      0.27173163
       3645.6736      0.29010352
       3646.5636      0.27603119
       3647.4535      0.27917836
       3648.3434      0.26316949
       3649.2334      0.29828743
       3650.1233      0.26363122
       3651.0132      0.22314639
       3651.9032      0.27444745
       3652.7931      0.25461516
       3653.6830      0.27489218
       3654.5729      0.25580175
       3655.4629      0.28708821
       3656.3528      0.30533530
       3657.2427      0.27537504
       3658.1327      0.28485614
       3659.0226      0.27590789
       3659.9125      0.31571563
       3660.8024      0.29357673
       3661.6924      0.27059175
       3662.5823      0.30703074
       3663.4722      0.28984322
       3664.3622      0.26866394
       3665.2521      0.29791477
       3666.1420      0.28173608
       3667.0320      0.29352896
       3667.9219      0.26751943
       3668.8118      0.28444201
       3669.7017      0.31742481
       3670.5917      0.29183446
       3671.4816      0.28326954
       3672.3715      0.30532506
       3673.2615      0.26900730
       3674.1514      0.29348322
       3675.0413      0.31958339
       3675.9312      0.29086919
       3676.8212      0.28060353
       3677.7111      0.23341316
       3678.6010      0.25787804
       3679.4910      0.25846878
       3680.3809      0.28285202
       3681.2708      0.26973471
       3682.1608      0.30746232
       3683.0507      0.25499761
       3683.9406      0.24983033
       3684.8305      0.28682200
       3685.7205      0.28090717
       3686.6104      0.26259938
       3687.5003      0.30364261
       3688.3903      0.31578973
       3689.2802      0.29626334
       3690.1701      0.32820845
       3691.0600      0.29328554
       3691.9500      0.28414939
       3692.8399      0.28424827
       3693.7298      0.28538470
       3694.6198      0.26921745
       3695.5097      0.29966675
       3696.3996      0.28335214
       3697.2895      0.29891475
       3698.1795      0.34671502
       3699.0694      0.31797824
       3699.9593      0.28112155
       3700.8493      0.31711454
       3701.7392      0.25782878
       3702.6291      0.31368131
       3703.5191      0.27077780
       3704.4090      0.26849992
       3705.2989      0.29099364
       3706.1888      0.29515844
       3707.0788      0.28859110
       3707.9687      0.29018636
       3708.8586      0.26571996
       3709.7486      0.30221561
       3710.6385      0.27501589
       3711.5284      0.29028648
       3712.4183      0.31202334
       3713.3083      0.31244199
       3714.1982      0.29509958
       3715.0881      0.32320694
       3715.9781      0.33787545
       3716.8680      0.30232569
       3717.7579      0.32136251
       3718.6479      0.29766667
       3719.5378      0.31370226
       3720.4277      0.27020828
       3721.3176      0.35002389
       3722.2076      0.49793673
       3723.0975      0.74313793
       3723.9874       1.0007504
       3724.8774       1.1911897
       3725.7673       1.4344081
       3726.6572       1.5723267
       3727.5471       1.5048576
       3728.4371       1.3254071
       3729.3270       1.0632728
       3730.2169      0.80018183
       3731.1069      0.62570476
       3731.9968      0.39803526
       3732.8867      0.27393753
       3733.7767      0.27107818
       3734.6666      0.25721165
       3735.5565      0.29314588
       3736.4464      0.26298645
       3737.3364      0.32433770
       3738.2263      0.32889119
       3739.1162      0.33063955
       3740.0062      0.31875597
       3740.8961      0.36417483
       3741.7860      0.32409031
       3742.6759      0.35668141
       3743.5659      0.30459607
       3744.4558      0.33487218
       3745.3457      0.29352998
       3746.2357      0.27096124
       3747.1256      0.27271734
       3748.0155      0.25841435
       3748.9054      0.24230650
       3749.7954      0.29232169
       3750.6853      0.29268531
       3751.5752      0.29667420
       3752.4652      0.35044752
       3753.3551      0.32524957
       3754.2450      0.34789779
       3755.1350      0.35123130
       3756.0249      0.34337029
       3756.9148      0.34699896
       3757.8047      0.33133409
       3758.6947      0.35116138
       3759.5846      0.34923134
       3760.4745      0.35414093
       3761.3645      0.37460152
       3762.2544      0.33079469
       3763.1443      0.35263287
       3764.0342      0.31619666
       3764.9242      0.30659379
       3765.8141      0.32370311
       3766.7040      0.27942834
       3767.5940      0.29610582
       3768.4839      0.29922430
       3769.3738      0.30009303
       3770.2638      0.31648298
       3771.1537      0.30857740
       3772.0436      0.35819129
       3772.9335      0.37949482
       3773.8235      0.36502974
       3774.7134      0.36488600
       3775.6033      0.39570894
       3776.4933      0.41471340
       3777.3832      0.43596253
       3778.2731      0.43150529
       3779.1630      0.44311756
       3780.0530      0.44564099
       3780.9429      0.42139882
       3781.8328      0.44981753
       3782.7228      0.46058857
       3783.6127      0.44974145
       3784.5026      0.43961136
       3785.3926      0.40969511
       3786.2825      0.41734702
       3787.1724      0.38217953
       3788.0623      0.37674226
       3788.9523      0.36221532
       3789.8422      0.39463281
       3790.7321      0.36514674
       3791.6221      0.31031253
       3792.5120      0.29492485
       3793.4019      0.30514398
       3794.2918      0.30618592
       3795.1818      0.27637965
       3796.0717      0.29235508
       3796.9616      0.25613090
       3797.8516      0.32171653
       3798.7415      0.30708081
       3799.6314      0.34290648
       3800.5213      0.37455276
       3801.4113      0.40738602
       3802.3012      0.39368454
       3803.1911      0.40013531
       3804.0811      0.38629317
       3804.9710      0.41052414
       3805.8609      0.42486757
       3806.7509      0.41082966
       3807.6408      0.44245614
       3808.5307      0.39323771
       3809.4206      0.46398218
       3810.3106      0.42037345
       3811.2005      0.43684061
       3812.0904      0.43263835
       3812.9804      0.44339984
       3813.8703      0.45248044
       3814.7602      0.43678134
       3815.6501      0.44723222
       3816.5401      0.40684280
       3817.4300      0.40634544
       3818.3199      0.43326488
       3819.2099      0.41635919
       3820.0998      0.43862282
       3820.9897      0.38753742
       3821.8797      0.41413603
       3822.7696      0.39566352
       3823.6595      0.37338025
       3824.5494      0.33951615
       3825.4394      0.34432666
       3826.3293      0.36399904
       3827.2192      0.34339343
       3828.1092      0.32482565
       3828.9991      0.29503123
       3829.8890      0.32301224
       3830.7789      0.30951670
       3831.6689      0.31833257
       3832.5588      0.32133136
       3833.4487      0.31201308
       3834.3387      0.30202518
       3835.2286      0.31972940
       3836.1185      0.31370896
       3837.0084      0.37224422
       3837.8984      0.33548037
       3838.7883      0.40920385
       3839.6782      0.37511503
       3840.5682      0.42277385
       3841.4581      0.43309491
       3842.3480      0.46666138
       3843.2380      0.46426576
       3844.1279      0.48263849
       3845.0178      0.46216642
       3845.9077      0.44319409
       3846.7977      0.49151528
       3847.6876      0.46432682
       3848.5775      0.49657596
       3849.4675      0.42837707
       3850.3574      0.47649020
       3851.2473      0.47839732
       3852.1372      0.49310695
       3853.0272      0.42005494
       3853.9171      0.48167661
       3854.8070      0.51574937
       3855.6970      0.45174432
       3856.5869      0.49006160
       3857.4768      0.53000155
       3858.3668      0.48906286
       3859.2567      0.55017840
       3860.1466      0.49972470
       3861.0365      0.50782546
       3861.9265      0.54890209
       3862.8164      0.55247632
       3863.7063      0.54129957
       3864.5963      0.52921986
       3865.4862      0.54253862
       3866.3761      0.48831661
       3867.2660      0.47260586
       3868.1560      0.50625911
       3869.0459      0.48762659
       3869.9358      0.45158011
       3870.8258      0.44439811
       3871.7157      0.46755845
       3872.6056      0.47089088
       3873.4956      0.44301190
       3874.3855      0.42411612
       3875.2754      0.41541582
       3876.1653      0.40521161
       3877.0553      0.38927673
       3877.9452      0.38438600
       3878.8351      0.38353490
       3879.7251      0.37768280
       3880.6150      0.32194876
       3881.5049      0.39829462
       3882.3948      0.34200178
       3883.2848      0.41732303
       3884.1747      0.41236584
       3885.0646      0.38640823
       3885.9546      0.36987604
       3886.8445      0.40681628
       3887.7344      0.38925534
       3888.6243      0.38588685
       3889.5143      0.41034557
       3890.4042      0.42403154
       3891.2941      0.41660639
       3892.1841      0.43286171
       3893.0740      0.41032243
       3893.9639      0.44821260
       3894.8539      0.47285753
       3895.7438      0.44466025
       3896.6337      0.45931932
       3897.5236      0.45567541
       3898.4136      0.45339147
       3899.3035      0.43445366
       3900.1934      0.46494709
       3901.0834      0.51301114
       3901.9733      0.51741924
       3902.8632      0.51596222
       3903.7531      0.48164277
       3904.6431      0.54669494
       3905.5330      0.47012167
       3906.4229      0.54822686
       3907.3129      0.47915915
       3908.2028      0.50949159
       3909.0927      0.51383105
       3909.9827      0.49096138
       3910.8726      0.48461520
       3911.7625      0.51220823
       3912.6524      0.55129947
       3913.5424      0.52740940
       3914.4323      0.55217641
       3915.3222      0.56596112
       3916.2122      0.53112972
       3917.1021      0.52640236
       3917.9920      0.49852622
       3918.8819      0.54169150
       3919.7719      0.53877254
       3920.6618      0.50635073
       3921.5517      0.49979631
       3922.4417      0.44155214
       3923.3316      0.45520549
       3924.2215      0.39191943
       3925.1115      0.34600077
       3926.0014      0.34338585
       3926.8913      0.33179402
       3927.7812      0.34595330
       3928.6712      0.33491450
       3929.5611      0.37529179
       3930.4510      0.37907427
       3931.3410      0.40408275
       3932.2309      0.45739825
       3933.1208      0.46747801
       3934.0107      0.47016152
       3934.9007      0.52123723
       3935.7906      0.48622060
       3936.6805      0.48023906
       3937.5705      0.49009306
       3938.4604      0.45059698
       3939.3503      0.45880415
       3940.2402      0.47223682
       3941.1302      0.53187554
       3942.0201      0.49298659
       3942.9100      0.48899940
       3943.8000      0.49633459
       3944.6899      0.49723338
       3945.5798      0.47779096
       3946.4698      0.47805246
       3947.3597      0.50250200
       3948.2496      0.51488808
       3949.1395      0.48409026
       3950.0295      0.47460258
       3950.9194      0.46888066
       3951.8093      0.46054941
       3952.6993      0.47221461
       3953.5892      0.41737571
       3954.4791      0.40596505
       3955.3690      0.42195321
       3956.2590      0.38122081
       3957.1489      0.32423352
       3958.0388      0.35887020
       3958.9288      0.35842035
       3959.8187      0.32380579
       3960.7086      0.35595627
       3961.5986      0.32125760
       3962.4885      0.36295165
       3963.3784      0.34839742
       3964.2683      0.33310300
       3965.1583      0.38684692
       3966.0482      0.38931204
       3966.9381      0.36869670
       3967.8281      0.35673525
       3968.7180      0.41145187
       3969.6079      0.43613533
       3970.4978      0.41772891
       3971.3878      0.44037999
       3972.2777      0.45336374
       3973.1676      0.45434126
       3974.0576      0.44856332
       3974.9475      0.49425593
       3975.8374      0.50285376
       3976.7274      0.49580436
       3977.6173      0.54580054
       3978.5072      0.53730566
       3979.3971      0.52454570
       3980.2871      0.53520214
       3981.1770      0.53954942
       3982.0669      0.54515428
       3982.9569      0.53386230
       3983.8468      0.56057425
       3984.7367      0.54438406
       3985.6266      0.55087747
       3986.5166      0.57460898
       3987.4065      0.55137580
       3988.2964      0.54103914
       3989.1864      0.54423956
       3990.0763      0.54034235
       3990.9662      0.54935676
       3991.8561      0.56242923
       3992.7461      0.55534276
       3993.6360      0.54526089
       3994.5259      0.55421671
       3995.4159      0.57828779
       3996.3058      0.58238353
       3997.1957      0.57293582
       3998.0857      0.56269253
       3998.9756      0.53781019
       3999.8655      0.55714005
       4000.7554      0.59200594
       4001.6454      0.56881798
       4002.5353      0.62353310
       4003.4252      0.55152078
       4004.3152      0.57947670
       4005.2051      0.57488648
       4006.0950      0.60210934
       4006.9849      0.60515510
       4007.8749      0.58458488
       4008.7648      0.60934029
       4009.6547      0.64431214
       4010.5447      0.58564256
       4011.4346      0.55443050
       4012.3245      0.59569520
       4013.2145      0.59865574
       4014.1044      0.56643957
       4014.9943      0.60271152
       4015.8842      0.52601771
       4016.7742      0.56925775
       4017.6641      0.57055616
       4018.5540      0.59084805
       4019.4440      0.58672166
       4020.3339      0.56837645
       4021.2238      0.60802606
       4022.1137      0.59174767
       4023.0037      0.57528014
       4023.8936      0.58658285
       4024.7835      0.59376877
       4025.6735      0.58335327
       4026.5634      0.63179964
       4027.4533      0.60906955
       4028.3432      0.66150592
       4029.2332      0.60148949
       4030.1231      0.58853091
       4031.0130      0.61582383
       4031.9030      0.61237897
       4032.7929      0.58613373
       4033.6828      0.53628081
       4034.5728      0.56079171
       4035.4627      0.60682767
       4036.3526      0.57221850
       4037.2425      0.58040544
       4038.1325      0.60021161
       4039.0224      0.63424015
       4039.9123      0.61309018
       4040.8023      0.58287856
       4041.6922      0.58291049
       4042.5821      0.58195977
       4043.4720      0.58100660
       4044.3620      0.59277776
       4045.2519      0.55583345
       4046.1418      0.59248550
       4047.0318      0.60992227
       4047.9217      0.61483329
       4048.8116      0.55894062
       4049.7016      0.54675242
       4050.5915      0.56132493
       4051.4814      0.58177126
       4052.3713      0.56437694
       4053.2613      0.58724010
       4054.1512      0.58715892
       4055.0411      0.58360557
       4055.9311      0.64596433
       4056.8210      0.61526273
       4057.7109      0.61109950
       4058.6008      0.61264595
       4059.4908      0.64160677
       4060.3807      0.62180393
       4061.2706      0.60079078
       4062.1606      0.57676294
       4063.0505      0.56777382
       4063.9404      0.59150126
       4064.8304      0.57921858
       4065.7203      0.54477282
       4066.6102      0.51683072
       4067.5001      0.54395421
       4068.3901      0.58419187
       4069.2800      0.57143454
       4070.1699      0.55398303
       4071.0599      0.60873270
       4071.9498      0.57174991
       4072.8397      0.54779284
       4073.7296      0.54766087
       4074.6196      0.56456139
       4075.5095      0.55255839
       4076.3994      0.53932209
       4077.2894      0.54863928
       4078.1793      0.54801443
       4079.0692      0.55434500
       4079.9591      0.54560555
       4080.8491      0.58013071
       4081.7390      0.52920051
       4082.6289      0.52104729
       4083.5189      0.49643580
       4084.4088      0.46234490
       4085.2987      0.45259766
       4086.1887      0.43650693
       4087.0786      0.43632534
       4087.9685      0.45130683
       4088.8584      0.51298570
       4089.7484      0.59859727
       4090.6383      0.58412857
       4091.5282      0.59855102
       4092.4182      0.48721145
       4093.3081      0.51142202
       4094.1980      0.47003603
       4095.0879      0.45277410
       4095.9779      0.45635967
       4096.8678      0.45357944
       4097.7577      0.53050610
       4098.6477      0.50181363
       4099.5376      0.51121167
       4100.4275      0.48501217
       4101.3175      0.50552753
       4102.2074      0.52596552
       4103.0973      0.56901544
       4103.9872      0.54687982
       4104.8772      0.53717575
       4105.7671      0.57761766
       4106.6570      0.60748731
       4107.5470      0.60877871
       4108.4369      0.62564561
       4109.3268      0.56988950
       4110.2167      0.54816671
       4111.1067      0.57121658
       4111.9966      0.58297325
       4112.8865      0.58076143
       4113.7765      0.59766216
       4114.6664      0.60347372
       4115.5563      0.58342602
       4116.4463      0.56196567
       4117.3362      0.56565961
       4118.2261      0.55941705
       4119.1160      0.58666188
       4120.0060      0.57910645
       4120.8959      0.57040601
       4121.7858      0.59797545
       4122.6758      0.59537110
       4123.5657      0.68412647
       4124.4556      0.63005538
       4125.3455      0.59638106
       4126.2355      0.59002627
       4127.1254      0.58536622
       4128.0153      0.61676766
       4128.9053      0.62939844
       4129.7952      0.58790062
       4130.6851      0.58997489
       4131.5750      0.57294075
       4132.4650      0.61842675
       4133.3549      0.64857044
       4134.2448      0.60217681
       4135.1348      0.60807540
       4136.0247      0.60026525
       4136.9146      0.61571435
       4137.8046      0.60923407
       4138.6945      0.61014937
       4139.5844      0.59324345
       4140.4743      0.58090272
       4141.3643      0.58191832
       4142.2542      0.60213315
       4143.1441      0.59775289
       4144.0341      0.57062273
       4144.9240      0.61281302
       4145.8139      0.62620357
       4146.7038      0.64209002
       4147.5938      0.66340780
       4148.4837      0.64963515
       4149.3736      0.59938109
       4150.2636      0.65055685
       4151.1535      0.61541294
       4152.0434      0.62148844
       4152.9334      0.62450540
       4153.8233      0.61183279
       4154.7132      0.61020105
       4155.6031      0.62841864
       4156.4931      0.63387137
       4157.3830      0.57006431
       4158.2729      0.63995271
       4159.1629      0.60295724
       4160.0528      0.57885089
       4160.9427      0.59828069
       4161.8326      0.56385798
       4162.7226      0.58211344
       4163.6125      0.59873648
       4164.5024      0.58662729
       4165.3924      0.57996660
       4166.2823      0.58646516
       4167.1722      0.58281610
       4168.0622      0.60624103
       4168.9521      0.64216407
       4169.8420      0.60254346
       4170.7319      0.59577680
       4171.6219      0.60872027
       4172.5118      0.62642131
       4173.4017      0.58770390
       4174.2917      0.61726731
       4175.1816      0.63975539
       4176.0715      0.61712965
       4176.9614      0.64773825
       4177.8514      0.65155854
       4178.7413      0.61448205
       4179.6312      0.62464278
       4180.5212      0.63231802
       4181.4111      0.63609645
       4182.3010      0.62260171
       4183.1909      0.61566745
       4184.0809      0.60914027
       4184.9708      0.58693463
       4185.8607      0.60992276
       4186.7507      0.62053372
       4187.6406      0.59842579
       4188.5305      0.58015013
       4189.4205      0.60417299
       4190.3104      0.64801923
       4191.2003      0.62248082
       4192.0902      0.63894339
       4192.9802      0.62766060
       4193.8701      0.63750907
       4194.7600      0.67563002
       4195.6500      0.66837774
       4196.5399      0.61987660
       4197.4298      0.67005907
       4198.3197      0.64450221
       4199.2097      0.61458067
       4200.0996      0.64045831
       4200.9895      0.62369407
       4201.8795      0.65824956
       4202.7694      0.67628775
       4203.6593      0.68130344
       4204.5493      0.71606313
       4205.4392      0.76357312
       4206.3291      0.71710872
       4207.2190      0.63765564
       4208.1090      0.61780840
       4208.9989      0.61008168
       4209.8888      0.54181662
       4210.7788      0.59133363
       4211.6687      0.62128731
       4212.5586      0.57480981
       4213.4485      0.62278984
       4214.3385      0.61887038
       4215.2284      0.64410918
       4216.1183      0.66452056
       4217.0083      0.58376342
       4217.8982      0.61467320
       4218.7881      0.59423378
       4219.6780      0.61735596
       4220.5680      0.61912022
       4221.4579      0.62338210
       4222.3478      0.59936371
       4223.2378      0.62415635
       4224.1277      0.61155200
       4225.0176      0.60515145
       4225.9076      0.65279873
       4226.7975      0.61976029
       4227.6874      0.63520092
       4228.5773      0.64959925
       4229.4673      0.64826131
       4230.3572      0.60782126
       4231.2471      0.60214959
       4232.1371      0.62820278
       4233.0270      0.62871110
       4233.9169      0.61508258
       4234.8068      0.63928565
       4235.6968      0.60359956
       4236.5867      0.63274407
       4237.4766      0.67909213
       4238.3666      0.63674420
       4239.2565      0.63595668
       4240.1464      0.65973010
       4241.0364      0.65933922
       4241.9263      0.64932931
       4242.8162      0.64418506
       4243.7061      0.63054004
       4244.5961      0.63991729
       4245.4860      0.63361680
       4246.3759      0.67907568
       4247.2659      0.68249820
       4248.1558      0.61983747
       4249.0457      0.64541297
       4249.9356      0.66821014
       4250.8256      0.66079130
       4251.7155      0.65575965
       4252.6054      0.62737637
       4253.4954      0.60671817
       4254.3853      0.60377100
       4255.2752      0.62847241
       4256.1652      0.61603066
       4257.0551      0.62276412
       4257.9450      0.58348638
       4258.8349      0.63470040
       4259.7249      0.59496152
       4260.6148      0.63055919
       4261.5047      0.66404857
       4262.3947      0.66541093
       4263.2846      0.64581448
       4264.1745      0.61102719
       4265.0644      0.65600545
       4265.9544      0.66758441
       4266.8443      0.63448277
       4267.7342      0.61842523
       4268.6242      0.60902883
       4269.5141      0.61515334
       4270.4040      0.63597204
       4271.2939      0.64784330
       4272.1839      0.60781830
       4273.0738      0.62459399
       4273.9637      0.64898291
       4274.8537      0.58229988
       4275.7436      0.57075552
       4276.6335      0.62227065
       4277.5235      0.56578950
       4278.4134      0.56717161
       4279.3033      0.58874034
       4280.1932      0.57468242
       4281.0832      0.54971892
       4281.9731      0.55644936
       4282.8630      0.57095599
       4283.7530      0.52317571
       4284.6429      0.54277865
       4285.5328      0.61089841
       4286.4227      0.56645612
       4287.3127      0.60545216
       4288.2026      0.58400432
       4289.0925      0.54610790
       4289.9825      0.53683012
       4290.8724      0.54802035
       4291.7623      0.54368796
       4292.6523      0.59961788
       4293.5422      0.62680820
       4294.4321      0.57377466
       4295.3220      0.60809029
       4296.2120      0.60230464
       4297.1019      0.60852082
       4297.9918      0.60097567
       4298.8818      0.62915528
       4299.7717      0.59268709
       4300.6616      0.62097422
       4301.5515      0.58635048
       4302.4415      0.57681817
       4303.3314      0.58652155
       4304.2213      0.56678643
       4305.1113      0.54011577
       4306.0012      0.57848017
       4306.8911      0.59512751
       4307.7811      0.56114854
       4308.6710      0.54908664
       4309.5609      0.57269133
       4310.4508      0.56866520
       4311.3408      0.52084178
       4312.2307      0.55020355
       4313.1206      0.58936886
       4314.0106      0.54971592
       4314.9005      0.54589354
       4315.7904      0.50752733
       4316.6803      0.55866568
       4317.5703      0.66846842
       4318.4602      0.74166837
       4319.3501      0.78252940
       4320.2401      0.81961760
       4321.1300      0.79926172
       4322.0199      0.71906640
       4322.9098      0.62818206
       4323.7998      0.55091423
       4324.6897      0.55115995
       4325.5796      0.52367794
       4326.4696      0.56254715
       4327.3595      0.49628225
       4328.2494      0.55437058
       4329.1394      0.52523452
       4330.0293      0.51323888
       4330.9192      0.53651264
       4331.8091      0.56990753
       4332.6991      0.58464346
       4333.5890      0.55542469
       4334.4789      0.56491034
       4335.3689      0.60885540
       4336.2588      0.62592340
       4337.1487      0.62971017
       4338.0386      0.60328602
       4338.9286      0.58479854
       4339.8185      0.61880523
       4340.7084      0.59179272
       4341.5984      0.60230282
       4342.4883      0.64626324
       4343.3782      0.63676742
       4344.2682      0.62750712
       4345.1581      0.65233090
       4346.0480      0.63243616
       4346.9379      0.61498844
       4347.8279      0.60139961
       4348.7178      0.66341647
       4349.6077      0.58799115
       4350.4977      0.63816753
       4351.3876      0.66612930
       4352.2775      0.59653964
       4353.1674      0.59002219
       4354.0574      0.59376297
       4354.9473      0.59048373
       4355.8372      0.62332397
       4356.7272      0.62709936
       4357.6171      0.65492734
       4358.5070      0.62008115
       4359.3970      0.58739551
       4360.2869      0.57767905
       4361.1768      0.60186790
       4362.0667      0.52978704
       4362.9567      0.55387463
       4363.8466      0.54855401
       4364.7365      0.55788034
       4365.6265      0.58770641
       4366.5164      0.61533191
       4367.4063      0.58954016
       4368.2962      0.63316720
       4369.1862      0.60820641
       4370.0761      0.63527658
       4370.9660      0.62979253
       4371.8560      0.59856922
       4372.7459      0.56806305
       4373.6358      0.58413394
       4374.5257      0.59621665
       4375.4157      0.61002518
       4376.3056      0.63477338
       4377.1955      0.61197079
       4378.0855      0.64506997
       4378.9754      0.59295288
       4379.8653      0.61132359
       4380.7553      0.58778072
       4381.6452      0.63823179
       4382.5351      0.67259704
       4383.4250      0.66490920
       4384.3150      0.57927789
       4385.2049      0.60741645
       4386.0948      0.60974240
       4386.9848      0.61450586
       4387.8747      0.65071007
       4388.7646      0.62538419
       4389.6545      0.65167840
       4390.5445      0.61801449
       4391.4344      0.61199187
       4392.3243      0.62111716
       4393.2143      0.57752822
       4394.1042      0.62191001
       4394.9941      0.58208857
       4395.8841      0.64853089
       4396.7740      0.60176289
       4397.6639      0.61809592
       4398.5538      0.64416578
       4399.4438      0.59006580
       4400.3337      0.62835901
       4401.2236      0.61256680
       4402.1136      0.59694251
       4403.0035      0.61626598
       4403.8934      0.60175683
       4404.7833      0.59992003
       4405.6733      0.59138161
       4406.5632      0.61444278
       4407.4531      0.57326298
       4408.3431      0.60619506
       4409.2330      0.62740092
       4410.1229      0.54007834
       4411.0128      0.58323064
       4411.9028      0.61197501
       4412.7927      0.62243998
       4413.6826      0.63812274
       4414.5726      0.61169799
       4415.4625      0.58761117
       4416.3524      0.59264206
       4417.2424      0.58716968
       4418.1323      0.58833431
       4419.0222      0.59306497
       4419.9121      0.57884397
       4420.8021      0.61525524
       4421.6920      0.60789998
       4422.5819      0.63533447
       4423.4719      0.59011952
       4424.3618      0.59873834
       4425.2517      0.63980853
       4426.1416      0.60713327
       4427.0316      0.65155463
       4427.9215      0.63418287
       4428.8114      0.60548715
       4429.7014      0.60257636
       4430.5913      0.62050387
       4431.4812      0.62028043
       4432.3712      0.59176519
       4433.2611      0.61741281
       4434.1510      0.60788017
       4435.0409      0.62057016
       4435.9309      0.60523710
       4436.8208      0.61362063
       4437.7107      0.66240087
       4438.6007      0.61432495
       4439.4906      0.60400142
       4440.3805      0.61876123
       4441.2704      0.64505214
       4442.1604      0.63626958
       4443.0503      0.59653642
       4443.9402      0.61110644
       4444.8302      0.61307843
       4445.7201      0.63538000
       4446.6100      0.61978098
       4447.5000      0.65623129
       4448.3899      0.64889991
       4449.2798      0.63445868
       4450.1697      0.62835094
       4451.0597      0.65301263
       4451.9496      0.66239942
       4452.8395      0.63456964
       4453.7295      0.64659845
       4454.6194      0.64240318
       4455.5093      0.59811059
       4456.3992      0.58281937
       4457.2892      0.65855299
       4458.1791      0.64552265
       4459.0690      0.63861582
       4459.9590      0.64388727
       4460.8489      0.67989003
       4461.7388      0.64858845
       4462.6287      0.62376688
       4463.5187      0.63298614
       4464.4086      0.63174241
       4465.2985      0.60143739
       4466.1885      0.62881679
       4467.0784      0.64261885
       4467.9683      0.66425019
       4468.8583      0.63815321
       4469.7482      0.63518327
       4470.6381      0.65361319
       4471.5280      0.64249650
       4472.4180      0.65705728
       4473.3079      0.66151643
       4474.1978      0.69246419
       4475.0878      0.65168926
       4475.9777      0.67854071
       4476.8676      0.69076142
       4477.7575      0.63297235
       4478.6475      0.69202160
       4479.5374      0.68399839
       4480.4273      0.67960733
       4481.3173      0.67074052
       4482.2072      0.65316574
       4483.0971      0.68787114
       4483.9871      0.67192643
       4484.8770      0.63111767
       4485.7669      0.65822623
       4486.6568      0.64600964
       4487.5468      0.64197549
       4488.4367      0.66206716
       4489.3266      0.64015659
       4490.2166      0.67600416
       4491.1065      0.60639437
       4491.9964      0.62522603
       4492.8863      0.69333336
       4493.7763      0.63123692
       4494.6662      0.58997187
       4495.5561      0.62282697
       4496.4461      0.62365271
       4497.3360      0.59760089
       4498.2259      0.60577472
       4499.1159      0.61413129
       4500.0058      0.58817449
       4500.8957      0.60181838
       4501.7856      0.59363664
       4502.6756      0.61091670
       4503.5655      0.61111916
       4504.4554      0.57821667
       4505.3454      0.57840617
       4506.2353      0.59623722
       4507.1252      0.56259764
       4508.0151      0.60775562
       4508.9051      0.64246951
       4509.7950      0.65130977
       4510.6849      0.59109535
       4511.5749      0.61069496
       4512.4648      0.61932704
       4513.3547      0.58765089
       4514.2446      0.57712818
       4515.1346      0.61585412
       4516.0245      0.60828193
       5570.5801       1.7651995
       5571.5488       1.7138122
       5572.5176       1.5897538
       5573.4863       1.4352399
       5574.4551       1.3322099
       5575.4238       1.2213909
       5576.3925       1.1434063
       5577.3613       1.0842049
       5578.3300       1.1701664
       5579.2988       1.1771255
       5580.2675       1.1836926
       5581.2363       1.2027400
       5582.2050       1.2177559
       5583.1738       1.4096984
       5584.1425       1.2342324
       5585.1113       1.2823235
       5586.0800       1.2427205
       5587.0487      0.98583377
       5588.0175       1.0889565
       5588.9862       1.1114089
       5589.9550       1.1022201
       5590.9237       1.1046721
       5591.8925       1.1265856
       5592.8612       1.1097405
       5593.8300       1.0769621
       5594.7987       1.1393346
       5595.7675       1.1463654
       5596.7362       1.1866154
       5597.7049       1.0537776
       5598.6737       1.1859030
       5599.6424       1.1435778
       5600.6112       1.1960065
       5601.5799       1.2026703
       5602.5487       1.2693331
       5603.5174       1.2784642
       5604.4862       1.3482797
       5605.4549       1.2895728
       5606.4237       1.4095511
       5607.3924       1.2226098
       5608.3611       1.3291969
       5609.3299       1.2702737
       5610.2986       1.1544232
       5611.2674       1.1298972
       5612.2361       1.0571917
       5613.2049       1.1403238
       5614.1736       1.2279590
       5615.1424       1.1380566
       5616.1111       1.1915017
       5617.0799       1.1079389
       5618.0486       1.0771639
       5619.0173       1.2162734
       5619.9861       1.1506798
       5620.9548       1.0807871
       5621.9236       1.1627682
       5622.8923       1.0751221
       5623.8611       1.0985454
       5624.8298       1.1569537
       5625.7986       1.1880406
       5626.7673       1.2066798
       5627.7360       1.0919452
       5628.7048       1.2037075
       5629.6735       1.0046483
       5630.6423       1.2946588
       5631.6110       1.2418527
       5632.5798       1.2204562
       5633.5485       1.3224976
       5634.5173       1.1118267
       5635.4860       1.0560725
       5636.4548       1.0018399
       5637.4235       1.0225173
       5638.3922      0.98782484
       5639.3610      0.88336804
       5640.3297      0.90691180
       5641.2985       1.0082971
       5642.2672       1.0292060
       5643.2360       1.1036881
       5644.2047      0.97102662
       5645.1735      0.97367148
       5646.1422       1.0332674
       5647.1110       1.0817607
       5648.0797       1.2390024
       5649.0484       1.1861762
       5650.0172       1.2016524
       5650.9859       1.0766915
       5651.9547       1.0257738
       5652.9234       1.0110366
       5653.8922       1.0386174
       5654.8609       1.1033077
       5655.8297       1.0043824
       5656.7984       1.0292562
       5657.7672       1.1000744
       5658.7359       1.2439997
       5659.7046       1.2686657
       5660.6734      0.97000788
       5661.6421      0.96410283
       5662.6109      0.97978523
       5663.5796       1.0863029
       5664.5484       1.2083378
       5665.5171       1.2704386
       5666.4859       1.0953582
       5667.4546       1.1654495
       5668.4234       1.1979935
       5669.3921       1.1922640
       5670.3608       1.0845700
       5671.3296       1.0182207
       5672.2983       1.2268059
       5673.2671       1.1059940
       5674.2358       1.2035122
       5675.2046       1.1611727
       5676.1733       1.1371718
       5677.1421       1.0827013
       5678.1108       1.0775076
       5679.0796       1.1130744
       5680.0483       1.2164602
       5681.0170       1.1280437
       5681.9858       1.2699563
       5682.9545       1.1871345
       5683.9233       1.0807759
       5684.8920       1.1010369
       5685.8608       1.1785609
       5686.8295       1.0763129
       5687.7983       1.1117925
       5688.7670       1.2136832
       5689.7358       1.2020713
       5690.7045       1.3054768
       5691.6732       1.2251690
       5692.6420       1.2651315
       5693.6107       1.1021112
       5694.5795       1.1084150
       5695.5482       1.1632145
       5696.5170       1.2162055
       5697.4857       1.2872788
       5698.4545       1.2922864
       5699.4232       1.3937848
       5700.3919       1.4191520
       5701.3607       1.4093184
       5702.3294       1.3485155
       5703.2982       1.3027499
       5704.2669       1.2549400
       5705.2357       1.3400392
       5706.2044       1.4386584
       5707.1732       1.3906977
       5708.1419       1.4085939
       5709.1107       1.3683395
       5710.0794       1.2448473
       5711.0481       1.2910903
       5712.0169       1.2962565
       5712.9856       1.3565952
       5713.9544       1.3110246
       5714.9231       1.3699554
       5715.8919       1.2140385
       5716.8606       1.3504885
       5717.8294       1.2212671
       5718.7981       1.2563474
       5719.7669       1.2876930
       5720.7356       1.2908698
       5721.7043       1.2927228
       5722.6731       1.3097000
       5723.6418       1.2494692
       5724.6106       1.3224611
       5725.5793       1.2803524
       5726.5481       1.3386120
       5727.5168       1.4827088
       5728.4856       1.5696035
       5729.4543       1.3204284
       5730.4231       1.3185044
       5731.3918       1.4228297
       5732.3605       1.4795443
       5733.3293       1.4695780
       5734.2980       1.3948911
       5735.2668       1.3811185
       5736.2355       1.1470444
       5737.2043       1.2532211
       5738.1730       1.3021471
       5739.1418       1.2944996
       5740.1105       1.3001405
       5741.0793       1.3504960
       5742.0480       1.3316811
       5743.0167       1.3576101
       5743.9855       1.3139774
       5744.9542       1.3440370
       5745.9230       1.4251847
       5746.8917       1.4116356
       5747.8605       1.4743340
       5748.8292       1.2543377
       5749.7980       1.3862230
       5750.7667       1.3242059
       5751.7355       1.3475347
       5752.7042       1.2073041
       5753.6729       1.3497723
       5754.6417       1.2846630
       5755.6104       1.1083105
       5756.5792       1.0838012
       5757.5479       1.1399252
       5758.5167       1.2672952
       5759.4854       1.3104396
       5760.4542       1.1240669
       5761.4229       1.2485507
       5762.3916       1.2191676
       5763.3604       1.3009155
       5764.3291       1.3111944
       5765.2979       1.3391705
       5766.2666       1.3338828
       5767.2354       1.3354240
       5768.2041       1.2173468
       5769.1729       1.2654529
       5770.1416       1.3196384
       5771.1104       1.3804389
       5772.0791       1.2881279
       5773.0478       1.3123376
       5774.0166       1.2886818
       5774.9853       1.3113735
       5775.9541       1.3172113
       5776.9228       1.3450895
       5777.8916       1.4635791
       5778.8603       1.4287271
       5779.8291       1.4174377
       5780.7978       1.2715556
       5781.7666       1.1643750
       5782.7353       1.3316454
       5783.7040       1.4351867
       5784.6728       1.4164389
       5785.6415       1.4242979
       5786.6103       1.3108259
       5787.5790       1.3229281
       5788.5478       1.5251326
       5789.5165       1.4911426
       5790.4853       1.3692433
       5791.4540       1.4290463
       5792.4228       1.3132767
       5793.3915       1.2042537
       5794.3602       1.2892862
       5795.3290       1.3704562
       5796.2977       1.3035229
       5797.2665       1.3155180
       5798.2352       1.3682872
       5799.2040       1.3680544
       5800.1727       1.4465857
       5801.1415       1.4335717
       5802.1102       1.5225561
       5803.0790       1.5177211
       5804.0477       1.4780159
       5805.0164       1.4892172
       5805.9852       1.5380120
       5806.9539       1.4585133
       5807.9227       1.4576191
       5808.8914       1.4327946
       5809.8602       1.4685213
       5810.8289       1.4862931
       5811.7977       1.5795723
       5812.7664       1.3950653
       5813.7352       1.5020242
       5814.7039       1.4872813
       5815.6726       1.5145624
       5816.6414       1.4973851
       5817.6101       1.3727728
       5818.5789       1.3752376
       5819.5476       1.4077621
       5820.5164       1.4380424
       5821.4851       1.4768642
       5822.4539       1.5231402
       5823.4226       1.4362281
       5824.3914       1.4074200
       5825.3601       1.5012822
       5826.3288       1.4788311
       5827.2976       1.5116181
       5828.2663       1.4892935
       5829.2351       1.4057720
       5830.2038       1.5662920
       5831.1726       1.5773524
       5832.1413       1.4058862
       5833.1101       1.5046444
       5834.0788       1.5472798
       5835.0475       1.3214732
       5836.0163       1.3807399
       5836.9850       1.5152428
       5837.9538       1.5372724
       5838.9225       1.4560979
       5839.8913       1.5142657
       5840.8600       1.2949831
       5841.8288       1.3783855
       5842.7975       1.4299315
       5843.7663       1.4536341
       5844.7350       1.4561226
       5845.7037       1.4988772
       5846.6725       1.5340753
       5847.6412       1.4417270
       5848.6100       1.5694398
       5849.5787       1.5074025
       5850.5475       1.6030541
       5851.5162       1.7599294
       5852.4850       1.5593176
       5853.4537       1.4843250
       5854.4225       1.5459145
       5855.3912       1.8011238
       5856.3599       1.7448367
       5857.3287       1.8632650
       5858.2974       1.6495978
       5859.2662       1.6775512
       5860.2349       1.7279462
       5861.2037       1.6363696
       5862.1724       1.5536333
       5863.1412       1.4225490
       5864.1099       1.5620639
       5865.0787       1.4451676
       5866.0474       1.5411720
       5867.0161       1.4676672
       5867.9849       1.3835802
       5868.9536       1.3394212
       5869.9224       1.2243398
       5870.8911       1.2934899
       5871.8599       1.3149746
       5872.8286       1.3484337
       5873.7974       1.3351416
       5874.7661       1.3622353
       5875.7349       1.2891170
       5876.7036       1.3603624
       5877.6723       1.3475446
       5878.6411       1.3659227
       5879.6098       1.4064716
       5880.5786       1.4227954
       5881.5473       1.3543599
       5882.5161       1.5575117
       5883.4848       1.6930681
       5884.4536       1.5514787
       5885.4223       1.5690978
       5886.3911       1.4828853
       5887.3598       1.5883949
       5888.3285       1.4607384
       5889.2973       1.5151036
       5890.2660       1.5596225
       5891.2348       1.5845391
       5892.2035       1.5640990
       5893.1723       1.6567680
       5894.1410       1.5778166
       5895.1098       1.4806248
       5896.0785       1.5481126
       5897.0473       1.3734956
       5898.0160       1.4624881
       5898.9847       1.5149593
       5899.9535       1.6012194
       5900.9222       1.5053933
       5901.8910       1.4115603
       5902.8597       1.4710566
       5903.8285       1.5232831
       5904.7972       1.4758467
       5905.7660       1.4270830
       5906.7347       1.5494056
       5907.7034       1.4681247
       5908.6722       1.4264508
       5909.6409       1.4762479
       5910.6097       1.4858870
       5911.5784       1.5252408
       5912.5472       1.6273104
       5913.5159       1.5242945
       5914.4847       1.5205204
       5915.4534       1.6096349
       5916.4222       1.6668963
       5917.3909       1.6968572
       5918.3596       1.5768375
       5919.3284       1.5983836
       5920.2971       1.5680185
       5921.2659       1.4464615
       5922.2346       1.5286421
       5923.2034       1.5538906
       5924.1721       1.6320345
       5925.1409       1.5701257
       5926.1096       1.6040465
       5927.0784       1.6003148
       5928.0471       1.7228699
       5929.0158       1.6938680
       5929.9846       1.7039882
       5930.9533       1.7308749
       5931.9221       1.7296836
       5932.8908       1.5519725
       5933.8596       1.5757579
       5934.8283       1.5583851
       5935.7971       1.5753864
       5936.7658       1.4790983
       5937.7346       1.4755413
       5938.7033       1.5230794
       5939.6720       1.6087086
       5940.6408       1.6259024
       5941.6095       1.6696569
       5942.5783       1.6269610
       5943.5470       1.5386078
       5944.5158       1.4896336
       5945.4845       1.6052447
       5946.4533       1.6374569
       5947.4220       1.3857268
       5948.3908       1.5745220
       5949.3595       1.5703683
       5950.3282       1.5487458
       5951.2970       1.6018909
       5952.2657       1.8710931
       5953.2345       1.8876606
       5954.2032       1.8959124
       5955.1720       1.9072042
       5956.1407       1.9155595
       5957.1095       1.7298073
       5958.0782       2.0629383
       5959.0470       1.9778071
       5960.0157       1.7909560
       5960.9844       1.7969056
       5961.9532       1.6897336
       5962.9219       1.7742322
       5963.8907       1.5157840
       5964.8594       1.5958136
       5965.8282       1.5266590
       5966.7969       1.6006834
       5967.7657       1.5015629
       5968.7344       1.5567469
       5969.7032       1.5520694
       5970.6719       1.4726292
       5971.6406       1.5263135
       5972.6094       1.6811628
       5973.5781       1.4712984
       5974.5469       1.5397352
       5975.5156       1.5009711
       5976.4844       1.4242215
       5977.4531       1.3476381
       5978.4219       1.3030603
       5979.3906       1.2254212
       5980.3593       1.2394908
       5981.3281       1.7021715
       5982.2968       1.9935658
       5983.2656       1.8615183
       5984.2343       1.7593110
       5985.2031       1.7238260
       5986.1718       1.7619686
       5987.1406       1.7953925
       5988.1093       1.8144311
       5989.0781       1.6441284
       5990.0468       1.7691961
       5991.0155       1.8461196
       5991.9843       1.8302795
       5992.9530       1.6733471
       5993.9218       1.7009683
       5994.8905       1.5191487
       5995.8593       1.3516422
       5996.8280       1.6706083
       5997.7968       1.6783558
       5998.7655       1.5716638
       5999.7343       1.6681848
       6000.7030       1.6212992
       6001.6717       1.8041852
       6002.6405       1.5910289
       6003.6092       1.4141671
       6004.5780       1.6106710
       6005.5467       1.6746148
       6006.5155       1.8250279
       6007.4842       1.7489773
       6008.4530       1.7614852
       6009.4217       1.6942757
       6010.3905       1.5420917
       6011.3592       1.7891630
       6012.3279       1.5759703
       6013.2967       1.5661746
       6014.2654       2.0153741
       6015.2342       1.8943197
       6016.2029       1.7010129
       6017.1717       1.8832869
       6018.1404       1.9899506
       6019.1092       1.8741234
       6020.0779       1.8355957
       6021.0467       1.5454250
       6022.0154       1.7907448
       6022.9841       1.7599156
       6023.9529       1.8821659
       6024.9216       1.6761880
       6025.8904       1.9430631
       6026.8591       1.7593718
       6027.8279       1.8095574
       6028.7966       1.9222138
       6029.7654       1.7526261
       6030.7341       1.7569118
       6031.7029       1.8217249
       6032.6716       1.7490121
       6033.6403       1.7688514
       6034.6091       1.6282185
       6035.5778       1.8564656
       6036.5466       2.0373616
       6037.5153       2.0862728
       6038.4841       2.1580677
       6039.4528       1.9478532
       6040.4216       1.8959583
       6041.3903       1.7626696
       6042.3591       1.7145997
       6043.3278       1.8104187
       6044.2965       1.8603443
       6045.2653       1.7136871
       6046.2340       1.6762827
       6047.2028       1.7681935
       6048.1715       1.8842741
       6049.1403       1.9178995
       6050.1090       1.9168669
       6051.0778       1.7558787
       6052.0465       1.7582971
       6053.0152       1.8420886
       6053.9840       1.8632113
       6054.9527       1.7052080
       6055.9215       1.8072553
       6056.8902       1.8536502
       6057.8590       1.7207036
       6058.8277       1.9291695
       6059.7965       1.9843521
       6060.7652       2.0563615
       6061.7340       2.2544843
       6062.7027       2.0800683
       6063.6714       1.9153102
       6064.6402       1.8875629
       6065.6089       1.7202080
       6066.5777       1.6747737
       6067.5464       1.8155828
       6068.5152       1.6924947
       6069.4839       1.9067959
       6070.4527       1.8854401
       6071.4214       1.8771119
       6072.3902       1.8329478
       6073.3589       1.9003308
       6074.3276       1.9141193
       6075.2964       1.8729247
       6076.2651       1.7849439
       6077.2339       1.8354686
       6078.2026       1.9136693
       6079.1714       1.7830019
       6080.1401       1.9214144
       6081.1089       1.8878178
       6082.0776       1.8556895
       6083.0464       1.7350567
       6084.0151       1.8022243
       6084.9838       1.5964182
       6085.9526       1.9093930
       6086.9213       1.6246541
       6087.8901       1.4476068
       6088.8588       1.9688645
       6089.8276       2.1260724
       6090.7963       1.9646788
       6091.7651       1.8345375
       6092.7338       1.8527161
       6093.7026       2.0389234
       6094.6713       1.8352169
       6095.6400       1.8253315
       6096.6088       1.9108361
       6097.5775       1.7889997
       6098.5463       1.8837263
       6099.5150       1.8748325
       6100.4838       1.8556741
       6101.4525       1.7531106
       6102.4213       1.8936864
       6103.3900       1.8391299
       6104.3588       1.8077350
       6105.3275       1.8120224
       6106.2962       1.7651364
       6107.2650       1.7602682
       6108.2337       1.7669504
       6109.2025       1.9059889
       6110.1712       1.8004234
       6111.1400       1.9163729
       6112.1087       1.7495819
       6113.0775       1.8763902
       6114.0462       1.9767769
       6115.0150       2.0047717
       6115.9837       1.8195471
       6116.9524       1.6678017
       6117.9212       1.8704171
       6118.8899       2.0836677
       6119.8587       2.1304759
       6120.8274       2.0265809
       6121.7962       1.8643433
       6122.7649       1.8528768
       6123.7337       1.9252481
       6124.7024       1.8985350
       6125.6711       1.8298173
       6126.6399       1.7041706
       6127.6086       1.9084195
       6128.5774       1.8439580
       6129.5461       1.8135290
       6130.5149       1.9763515
       6131.4836       1.8091334
       6132.4524       1.8188358
       6133.4211       1.9835882
       6134.3899       1.8468412
       6135.3586       1.8742513
       6136.3273       1.9599236
       6137.2961       1.8465604
       6138.2648       1.9451087
       6139.2336       1.9994123
       6140.2023       1.8579832
       6141.1711       1.8644072
       6142.1398       1.7821877
       6143.1086       1.8458844
       6144.0773       1.9150503
       6145.0461       1.7342697
       6146.0148       1.8375726
       6146.9835       2.1156293
       6147.9523       1.9970230
       6148.9210       1.7956416
       6149.8898       1.7982610
       6150.8585       1.7417670
       6151.8273       1.7744123
       6152.7960       1.8147685
       6153.7648       1.8519983
       6154.7335       1.7302714
       6155.7023       1.7049106
       6156.6710       1.8366028
       6157.6397       2.0282602
       6158.6085       1.9144626
       6159.5772       1.7407880
       6160.5460       1.7913762
       6161.5147       1.9202293
       6162.4835       1.8347430
       6163.4522       1.8239286
       6164.4210       1.7593405
       6165.3897       2.0730633
       6166.3585       1.7347041
       6167.3272       1.8149057
       6168.2959       1.7695239
       6169.2647       1.7660476
       6170.2334       1.8946009
       6171.2022       1.8604224
       6172.1709       1.8343906
       6173.1397       1.8837592
       6174.1084       1.8483710
       6175.0772       1.8225613
       6176.0459       1.8100243
       6177.0147       1.7495079
       6177.9834       1.8189188
       6178.9521       1.8982455
       6179.9209       1.8171796
       6180.8896       1.8752590
       6181.8584       1.7978229
       6182.8271       1.8966097
       6183.7959       1.8392517
       6184.7646       1.8148604
       6185.7334       1.9906203
       6186.7021       1.8434655
       6187.6708       1.8257759
       6188.6396       1.9400755
       6189.6083       1.8485733
       6190.5771       2.0563214
       6191.5458       1.9319150
       6192.5146       2.1369511
       6193.4833       2.0808654
       6194.4521       1.9424697
       6195.4208       1.7966175
       6196.3896       1.9360380
       6197.3583       1.7039155
       6198.3270       1.8744905
       6199.2958       1.7413090
       6200.2645       1.7685042
       6201.2333       1.8254504
       6202.2020       1.9155417
       6203.1708       1.8952237
       6204.1395       1.9109132
       6205.1083       1.9836329
       6206.0770       1.9772041
       6207.0458       1.7928718
       6208.0145       1.8247709
       6208.9832       1.9651452
       6209.9520       1.9526309
       6210.9207       1.8964793
       6211.8895       2.1780841
       6212.8582       1.9871929
       6213.8270       1.9927551
       6214.7957       1.9606766
       6215.7645       1.9531716
       6216.7332       1.9647284
       6217.7020       1.8826053
       6218.6707       1.7762964
       6219.6394       1.8333143
       6220.6082       1.8835405
       6221.5769       2.0624158
       6222.5457       1.9171817
       6223.5144       2.0189615
       6224.4832       1.8486618
       6225.4519       1.9054966
       6226.4207       1.9653293
       6227.3894       1.9637366
       6228.3582       2.0302845
       6229.3269       1.9500923
       6230.2956       2.0468904
       6231.2644       1.9117302
       6232.2331       2.0490847
       6233.2019       1.8410609
       6234.1706       1.7115858
       6235.1394       2.0420096
       6236.1081       1.8531332
       6237.0769       2.0092631
       6238.0456       2.0255511
       6239.0144       1.8018560
       6239.9831       1.8843199
       6240.9518       1.9297874
       6241.9206       1.8215727
       6242.8893       1.9539649
       6243.8581       1.8619706
       6244.8268       1.9498005
       6245.7956       1.9985172
       6246.7643       1.9440933
       6247.7331       1.6262229
       6248.7018       1.5169454
       6249.6706       1.3770225
       6250.6393       1.2939346
       6251.6080       1.1575322
       6252.5768       1.0055281
       6253.5455      0.93278299
       6254.5143             NaN
       6255.4830             NaN
       6256.4518             NaN
       6257.4205             NaN
       6258.3893             NaN
       6259.3580             NaN
       6260.3267             NaN
       6261.2955             NaN
       6262.2642             NaN
       6263.2330             NaN
       6264.2017             NaN
       6265.1705             NaN
       6266.1392             NaN
       6267.1080             NaN
       6268.0767             NaN
       6269.0455             NaN
       6270.0142             NaN
       6270.9829             NaN
       6271.9517             NaN
       6272.9204             NaN
       6273.8892             NaN
       6274.8579             NaN
       6275.8267             NaN
       6276.7954             NaN
       6277.7642             NaN
       6278.7329             NaN
       6279.7017             NaN
       6280.6704             NaN
       6281.6391             NaN
       6282.6079             NaN
       6283.5766             NaN
       6284.5454             NaN
       6285.5141             NaN
       6286.4829             NaN
       6287.4516             NaN
       6288.4204             NaN
       6289.3891             NaN
       6290.3579             NaN
       6291.3266             NaN
       6292.2953             NaN
       6293.2641             NaN
       6294.2328             NaN
       6295.2016             NaN
       6296.1703             NaN
       6297.1391             NaN
       6298.1078             NaN
       6299.0766             NaN
       6300.0453             NaN
       6301.0141             NaN
       6301.9828             NaN
       6302.9515             NaN
       6303.9203             NaN
       6304.8890             NaN
       6305.8578             NaN
       6306.8265             NaN
       6307.7953             NaN
       6308.7640             NaN
       6309.7328             NaN
       6310.7015             NaN
       6311.6703             NaN
       6312.6390             NaN
       6313.6077             NaN
       6314.5765             NaN
       6315.5452             NaN
       6316.5140             NaN
       6317.4827             NaN
       6318.4515             NaN
       6319.4202             NaN
       6320.3890             NaN
       6321.3577             NaN
       6322.3265             NaN
       6323.2952             NaN
       6324.2639             NaN
       6325.2327             NaN
       6326.2014             NaN
       6327.1702             NaN
       6328.1389             NaN
       6329.1077             NaN
       6330.0764             NaN
       6331.0452             NaN
       6332.0139             NaN
       6332.9826             NaN
       6333.9514             NaN
       6334.9201             NaN
       6335.8889             NaN
       6336.8576             NaN
       6337.8264             NaN
       6338.7951             NaN
       6339.7639             NaN
       6340.7326             NaN
       6341.7014       2.0797917
       6342.6701       2.0296461
       6343.6388       1.9151736
       6344.6076       1.8968694
       6345.5763       2.1053382
       6346.5451       2.1088319
       6347.5138       2.2686296
       6348.4826       1.9997431
       6349.4513       2.0057736
       6350.4201       2.2197091
       6351.3888       2.2417564
       6352.3576       2.1854183
       6353.3263       2.1771013
       6354.2950       2.4575269
       6355.2638       2.6445072
       6356.2325       2.3882548
       6357.2013       1.9931296
       6358.1700       1.7973536
       6359.1388       2.1991850
       6360.1075       2.1654141
       6361.0763       2.0429639
       6362.0450       2.0497501
       6363.0138       1.9879197
       6363.9825       1.9857652
       6364.9512       2.0053621
       6365.9200       2.0190911
       6366.8887       2.0415993
       6367.8575       1.8472980
       6368.8262       2.1760006
       6369.7950       1.9922802
       6370.7637       2.1071717
       6371.7325       1.9605950
       6372.7012       2.0717427
       6373.6700       1.9130498
       6374.6387       2.0139541
       6375.6074       1.9987809
       6376.5762       1.8915090
       6377.5449       2.0469050
       6378.5137       2.0821334
       6379.4824       2.0818669
       6380.4512       2.5251475
       6381.4199       1.7640398
       6382.3887       2.2552222
       6383.3574       2.4803560
       6384.3262       1.8420753
       6385.2949       2.0083465
       6386.2636       2.0054796
       6387.2324       1.8117296
       6388.2011       1.8103271
       6389.1699       2.0611086
       6390.1386       1.9947251
       6391.1074       1.9832798
       6392.0761       1.9103664
       6393.0449       2.1211695
       6394.0136       1.9673038
       6394.9824       2.0836163
       6395.9511       1.9588695
       6396.9198       1.8808371
       6397.8886       2.1399974
       6398.8573       2.1457736
       6399.8261       2.1037849
       6400.7948       1.9863548
       6401.7636       1.8664881
       6402.7323       2.1474156
       6403.7011       1.8080520
       6404.6698       2.1188325
       6405.6385       2.4537323
       6406.6073       2.2768306
       6407.5760       1.9318175
       6408.5448       1.8647845
       6409.5135       1.7674777
       6410.4823       1.9774240
       6411.4510       2.0409539
       6412.4198       1.9171964
       6413.3885       2.0591031
       6414.3573       1.9792267
       6415.3260       2.1267571
       6416.2947       2.2745619
       6417.2635       2.3975470
       6418.2322       2.2664166
       6419.2010       1.8932804
       6420.1697       2.0034869
       6421.1385       1.9992383
       6422.1072       2.0704659
       6423.0760       1.9096333
       6424.0447       1.9509771
       6425.0135       1.8784856
       6425.9822       1.9818666
       6426.9509       2.1281833
       6427.9197       1.8550520
       6428.8884       1.9900468
       6429.8572       1.9308571
       6430.8259       2.1237527
       6431.7947       2.0047438
       6432.7634       1.9404314
       6433.7322       2.0780032
       6434.7009       2.0612792
       6435.6697       1.8700408
       6436.6384       2.0058200
       6437.6071       2.1932985
       6438.5759       2.3201160
       6439.5446       1.9341587
       6440.5134       2.1117732
       6441.4821       2.6071917
       6442.4509       2.0086939
       6443.4196       1.8501378
       6444.3884       1.7336208
       6445.3571       1.8054144
       6446.3259       1.7881883
       6447.2946       1.6797011
       6448.2633       1.7502963
       6449.2321       1.9271828
       6450.2008       1.8252936
       6451.1696       1.7371368
       6452.1383       1.6847902
       6453.1071       1.7969634
       6454.0758       1.5104843
       6455.0446       1.8306555
       6456.0133       1.7847073
       6456.9821       1.9260509
       6457.9508       1.8593541
       6458.9195       1.8565079
       6459.8883       2.0327250
       6460.8570       1.8033502
       6461.8258       2.2824296
       6462.7945       2.2532000
       6463.7633       2.6856322
       6464.7320       2.5263901
       6465.7008       1.9734139
       6466.6695       2.2098015
       6467.6383       2.4864441
       6468.6070       2.5627075
       6469.5757       1.8262344
       6470.5445       1.7937458
       6471.5132       1.6151335
       6472.4820       1.9658598
       6473.4507       1.8623443
       6474.4195       1.9054560
       6475.3882       1.9891363
       6476.3570       2.0358034
       6477.3257       2.1130130
       6478.2944       2.0355720
       6479.2632       1.9231826
       6480.2319       2.0597508
       6481.2007       1.9334385
       6482.1694       1.8440435
       6483.1382       1.7500177
       6484.1069       1.6959625
       6485.0757       1.6873245
       6486.0444       1.2504665
       6487.0132       1.3163170
       6487.9819       1.5636809
       6488.9506       1.2023026
       6489.9194       1.5821582
       6490.8881       1.4005856
       6491.8569       1.7359073
       6492.8256       1.8940696
       6493.7944       2.0385993
       6494.7631       2.0416841
       6495.7319       1.8656472
       6496.7006       2.0835768
       6497.6694       2.0685450
       6498.6381       1.8769131
       6499.6068       1.9513593
       6500.5756       2.0933321
       6501.5443       1.7694773
       6502.5131       1.7922980
       6503.4818       1.8553829
       6504.4506       1.8456825
       6505.4193       1.8355713
       6506.3881       1.9667700
       6507.3568       1.8288729
       6508.3256       1.8568169
       6509.2943       1.8860967
       6510.2630       1.8093034
       6511.2318       1.6698008
       6512.2005       1.7704994
       6513.1693       1.9210796
       6514.1380       2.1451802
       6515.1068       1.7022277
       6516.0755       2.0799233
       6517.0443       2.1330447
       6518.0130       1.9757778
       6518.9818       2.0136154
       6519.9505       1.7010154
       6520.9192       2.1041190
       6521.8880       2.0061907
       6522.8567       2.0196740
       6523.8255       1.7010331
       6524.7942       1.9395611
       6525.7630       1.7345617
       6526.7317       1.6969026
       6527.7005       1.7466088
       6528.6692       2.0007972
       6529.6380       1.8557332
       6530.6067       2.0055247
       6531.5754       2.0849514
       6532.5442       2.0313501
       6533.5129       1.9467110
       6534.4817       2.1742508
       6535.4504       2.4980253
       6536.4192       2.8466230
       6537.3879       3.3332514
       6538.3567       3.5737405
       6539.3254       3.6203450
       6540.2941       3.5876653
       6541.2629       3.4661672
       6542.2316       2.9433941
       6543.2004       2.8813248
       6544.1691       2.3732767
       6545.1379       2.1009334
       6546.1066       2.0152023
       6547.0754       2.2826114
       6548.0441       2.5142597
       6549.0129       3.6154054
       6549.9816       5.5806332
       6550.9503       8.3927349
       6551.9191       11.110500
       6552.8878       13.551197
       6553.8566       15.035508
       6554.8253       15.134419
       6555.7941       14.641182
       6556.7628       12.501384
       6557.7316       9.0880842
       6558.7003       6.6965345
       6559.6691       4.3230686
       6560.6378       3.0996512
       6561.6065       2.3913685
       6562.5753       2.0447227
       6563.5440       1.9439994
       6564.5128       1.8035275
       6565.4815       1.9147815
       6566.4503       2.1770264
       6567.4190       1.9768074
       6568.3878       2.0605615
       6569.3565       2.3307361
       6570.3253       3.1966411
       6571.2940       3.7009835
       6572.2627       4.9894848
       6573.2315       6.0680431
       6574.2002       6.5983004
       6575.1690       7.0947343
       6576.1377       7.1865689
       6577.1065       6.2399373
       6578.0752       5.2266135
       6579.0440       4.5335970
       6580.0127       3.9297155
       6580.9815       3.3849511
       6581.9502       2.7247709
       6582.9189       2.4328466
       6583.8877       2.1274724
       6584.8564       1.6726486
       6585.8252       2.1112340
       6586.7939       2.0718309
       6587.7627       1.8959806
       6588.7314       2.0293917
       6589.7002       2.0069287
       6590.6689       1.8996812
       6591.6377       1.9410150
       6592.6064       2.0357865
       6593.5751       1.8619400
       6594.5439       1.7709531
       6595.5126       1.9036116
       6596.4814       1.8097503
       6597.4501       1.7531252
       6598.4189       2.0968340
       6599.3876       2.2088875
       6600.3564       2.1761823
       6601.3251       1.9696675
       6602.2939       1.8656503
       6603.2626       1.9619133
       6604.2313       1.8274344
       6605.2001       1.9956253
       6606.1688       1.9690975
       6607.1376       1.8972865
       6608.1063       1.5483343
       6609.0751       1.7625520
       6610.0438       1.9522058
       6611.0126       1.9854526
       6611.9813       1.6951850
       6612.9500       1.9363709
       6613.9188       2.0960424
       6614.8875       1.8278567
       6615.8563       1.8386844
       6616.8250       1.9152804
       6617.7938       2.0090724
       6618.7625       1.9630113
       6619.7313       2.0298704
       6620.7000       2.0670984
       6621.6688       1.8646048
       6622.6375       1.8443343
       6623.6062       1.9145289
       6624.5750       2.0407131
       6625.5437       2.0444633
       6626.5125       1.8488729
       6627.4812       1.8105122
       6628.4500       1.9649472
       6629.4187       2.2532371
       6630.3875       2.0838746
       6631.3562       2.1461254
       6632.3250       1.8291487
       6633.2937       1.8414893
       6634.2624       1.7881127
       6635.2312       1.9075361
       6636.1999       1.9327947
       6637.1687       2.0508631
       6638.1374       2.1874361
       6639.1062       2.0309676
       6640.0749       1.9193935
       6641.0437       1.9201483
       6642.0124       1.8273427
       6642.9812       2.1740111
       6643.9499       2.0524552
       6644.9186       1.8032153
       6645.8874       1.9490787
       6646.8561       1.9532329
       6647.8249       1.9265248
       6648.7936       1.9742327
       6649.7624       2.0332524
       6650.7311       2.0458322
       6651.6999       1.9625814
       6652.6686       1.9903796
       6653.6374       2.1992137
       6654.6061       1.9772129
       6655.5748       1.9869307
       6656.5436       1.9055167
       6657.5123       1.9882684
       6658.4811       1.9265081
       6659.4498       2.0093553
       6660.4186       2.0743036
       6661.3873       1.9912421
       6662.3561       2.1096219
       6663.3248       1.9522892
       6664.2936       1.7678520
       6665.2623       2.1160961
       6666.2310       1.7950047
       6667.1998       2.0549600
       6668.1685       2.0804334
       6669.1373       1.9691435
       6670.1060       1.8992926
       6671.0748       2.2571274
       6672.0435       2.2706087
       6673.0123       1.9563329
       6673.9810       1.8933365
       6674.9498       2.1072504
       6675.9185       2.0142053
       6676.8872       2.0151888
       6677.8560       1.9097240
       6678.8247       1.8479880
       6679.7935       1.8440951
       6680.7622       1.9716904
       6681.7310       1.8867760
       6682.6997       1.9130302
       6683.6685       1.9171851
       6684.6372       1.9155352
       6685.6059       1.9287397
       6686.5747       2.1476711
       6687.5434       1.8409689
       6688.5122       2.0092257
       6689.4809       1.9687114
       6690.4497       1.9645931
       6691.4184       1.8790182
       6692.3872       1.7502072
       6693.3559       1.8987940
       6694.3247       1.8708144
       6695.2934       1.8956658
       6696.2621       1.9308058
       6697.2309       1.9004131
       6698.1996       1.8606677
       6699.1684       1.8750329
       6700.1371       1.9358231
       6701.1059       1.8433468
       6702.0746       1.8812296
       6703.0434       2.3613862
       6704.0121       2.9290747
       6704.9809       3.2454738
       6705.9496       3.6928186
       6706.9183       4.3442969
       6707.8871       4.5663810
       6708.8558       4.5049797
       6709.8246       4.0254841
       6710.7933       3.7508153
       6711.7621       3.0605290
       6712.7308       2.6798010
       6713.6996       2.0496632
       6714.6683       2.0574853
       6715.6371       2.0781812
       6716.6058       2.0783156
       6717.5745       2.1661172
       6718.5433       2.4778289
       6719.5120       2.7998468
       6720.4808       3.1712080
       6721.4495       3.3781146
       6722.4183       3.5866881
       6723.3870       3.9147750
       6724.3558       3.5839032
       6725.3245       3.1668708
       6726.2933       2.8762685
       6727.2620       2.4267666
       6728.2307       2.3306113
       6729.1995       2.2029485
       6730.1682       1.9983769
       6731.1370       1.9445866
       6732.1057       1.7032965
       6733.0745       1.7363964
       6734.0432       1.8925700
       6735.0120       1.8133724
       6735.9807       1.8292221
       6736.9495       1.8854649
       6737.9182       1.9429630
       6738.8869       1.9728594
       6739.8557       1.9038373
       6740.8244       1.7801364
       6741.7932       1.7173939
       6742.7619       1.8243532
       6743.7307       1.8669749
       6744.6994       1.9998009
       6745.6682       1.9319574
       6746.6369       1.8831761
       6747.6057       1.8166919
       6748.5744       1.8891604
       6749.5431       1.7849804
       6750.5119       1.7678216
       6751.4806       1.8953020
       6752.4494       1.9059463
       6753.4181       2.0931985
       6754.3869       2.0623361
       6755.3556       1.9072223
       6756.3244       1.8520569
       6757.2931       1.9124297
       6758.2618       1.9004267
       6759.2306       1.9092209
       6760.1993       2.1140495
       6761.1681       2.0400028
       6762.1368       1.9228042
       6763.1056       2.0733895
       6764.0743       1.9792121
       6765.0431       2.0966717
       6766.0118       2.0373178
       6766.9806       2.1890019
       6767.9493       1.9839776
       6768.9180       1.9963473
       6769.8868       1.9738066
       6770.8555       2.0296083
       6771.8243       1.7962089
       6772.7930       1.8172262
       6773.7618       1.7391280
       6774.7305       1.8048197
       6775.6993       1.7489676
       6776.6680       1.7478148
       6777.6368       1.7666600
       6778.6055       1.8031260
       6779.5742       1.9821000
       6780.5430       1.9107016
       6781.5117       1.9142857
       6782.4805       1.8600636
       6783.4492       1.8270198
       6784.4180       1.9466198
       6785.3867       1.8792087
       6786.3555       1.9806526
       6787.3242       1.9685544
       6788.2930       1.8962761
       6789.2617       2.1640474
       6790.2304       1.9916242
       6791.1992       1.9806923
       6792.1679       1.8054564
       6793.1367       1.9565182
       6794.1054       1.8719787
       6795.0742       2.0469246
       6796.0429       1.8912575
       6797.0117       1.8847404
       6797.9804       2.0423655
       6798.9492       1.9350338
       6799.9179       1.9750720
       6800.8866       1.9215027
       6801.8554       1.8891468
       6802.8241       1.7988666
       6803.7929       1.8992937
       6804.7616       2.0667274
       6805.7304       1.8912653
       6806.6991       1.9634673
       6807.6679       1.7553665
       6808.6366       2.0232826
       6809.6054       1.9496712
       6810.5741       1.9177753
       6811.5428       2.0292929
       6812.5116       1.8449351
       6813.4803       2.1947909
       6814.4491       1.9817254
       6815.4178       2.4082492
       6816.3866       2.1353946
       6817.3553       2.0390227
       6818.3241       2.3782690
       6819.2928       2.2147626
       6820.2616       1.9240976
       6821.2303       2.0254899
       6822.1990       2.1566370
       6823.1678       2.1611927
       6824.1365       1.9087868
       6825.1053       2.1351375
       6826.0740       2.0018615
       6827.0428       1.7407748
       6828.0115       1.6279524
       6828.9803       1.7005483
       6829.9490       1.6228392
       6830.9177       1.7278036
       6831.8865       1.8107437
       6832.8552       1.9355217
       6833.8240       1.8068244
       6834.7927       1.8726052
       6835.7615       2.3855046
       6836.7302       2.0274344
       6837.6990       2.1152029
       6838.6677       2.0539459
       6839.6365       1.9760566
       6840.6052       1.9597743
       6841.5739       1.7712087
       6842.5427       2.1156774
       6843.5114       2.1417217
       6844.4802       1.9772454
       6845.4489       2.1909554
       6846.4177       2.0903301
       6847.3864       2.0274152
       6848.3552       2.0710146
       6849.3239       2.0208993
       6850.2927       1.7065568
       6851.2614       1.8775616
       6852.2301       2.1270741
       6853.1989       2.0564678
       6854.1676       1.9410123
       6855.1364       1.8184491
       6856.1051       1.9993863
       6857.0739       1.9549370
       6858.0426       1.9525413
       6859.0114       2.2273025
       6859.9801       1.9031253
       6860.9489       1.8607525
       6861.9176       2.0295458
       6862.8863       1.9197938
       6863.8551       2.0311489
       6864.8238       1.8570350
       6865.7926       2.0201526
       6866.7613       2.1302251
       6867.7301       2.0108052
       6868.6988       2.0361731
       6869.6676       2.3385308
       6870.6363       2.1714898
       6871.6051       2.4651278
       6872.5738       2.6876082
       6873.5425       2.1710565
       6874.5113       2.2066989
       6875.4800       2.0891438
       6876.4488       2.3302058
       6877.4175       2.0991772
       6878.3863       2.1402304
       6879.3550       2.3171861
       6880.3238       2.0633574
       6881.2925       1.9211254
       6882.2613       1.9830366
       6883.2300       2.1672148
       6884.1987       2.1640754
       6885.1675       1.9522778
       6886.1362       1.7770144
       6887.1050       1.8796410
       6888.0737       2.0635197
       6889.0425       2.2548687
       6890.0112       2.1579578
       6890.9800       2.1414133
       6891.9487       2.1137356
       6892.9174       2.0298543
       6893.8862       1.8687883
       6894.8549       1.8642382
       6895.8237       2.0508764
       6896.7924       1.9167126
       6897.7612       2.0392536
       6898.7299       1.9355135
       6899.6987       1.9771347
       6900.6674       1.8743918
       6901.6362       2.1988451
       6902.6049       2.3239023
       6903.5736       2.0451969
       6904.5424       1.9098276
       6905.5111       2.1220693
       6906.4799       1.9974894
       6907.4486       2.1046318
       6908.4174       2.0146524
       6909.3861       2.1442919
       6910.3549       2.0749157
       6911.3236       2.1596416
       6912.2924       2.2867291
       6913.2611       1.9317401
       6914.2298       1.6509826
       6915.1986       1.9687575
       6916.1673       1.8992760
       6917.1361       1.8029299
       6918.1048       2.2569836
       6919.0736       2.2167861
       6920.0423       2.1623393
       6921.0111       2.0157540
       6921.9798       2.0127499
       6922.9486       1.9230609
       6923.9173       2.0545650
       6924.8860       2.0147883
       6925.8548       1.9631167
       6926.8235       1.8034379
       6927.7923       1.8357880
       6928.7610       2.1112645
       6929.7298       1.9864136
       6930.6985       2.2262771
       6931.6673       2.0180054
       6932.6360       2.2423575
       6933.6048       2.0909944
       6934.5735       1.8190198
       6935.5422       1.8907881
       6936.5110       1.9187291
       6937.4797       1.9663610
       6938.4485       2.3641755
       6939.4172       1.9231181
       6940.3860       2.1621948
       6941.3547       2.1811313
       6942.3235       1.9384741
       6943.2922       2.6952964
       6944.2610       2.0958551
       6945.2297       1.8572477
       6946.1984       2.0391457
       6947.1672       2.0102402
       6948.1359       1.7814179
       6949.1047       2.1169997
       6950.0734       2.0865630
       6951.0422       2.0756064
       6952.0109       2.0468075
       6952.9797       2.0357586
       6953.9484       2.0171948
       6954.9172       1.8556575
       6955.8859       2.1799916
       6956.8546       2.0888818
       6957.8234       2.2450997
       6958.7921       1.9622833
       6959.7609       1.7506962
       6960.7296       2.3220403
       6961.6984       2.2988493
       6962.6671       1.9659884
       6963.6359       2.1824823
       6964.6046       2.0398650
       6965.5733       2.3671444
       6966.5421       2.4089268
       6967.5108       2.2842597
       6968.4796       2.3118009
       6969.4483       2.8069296
       6970.4171       2.5870306
       6971.3858       2.6166119
       6972.3546       2.2499849
       6973.3233       1.8811630
       6974.2921       2.0520526
       6975.2608       2.2487709
       6976.2295       2.1665884
       6977.1983       2.1874217
       6978.1670       2.0661752
       6979.1358       1.8558488
       6980.1045       2.0502494
       6981.0733       2.1923460
       6982.0420       2.0617356
       6983.0108       2.1031221
       6983.9795       2.3400286
       6984.9483       2.2409876
       6985.9170       2.0796948
       6986.8857       1.9848744
       6987.8545       1.9572196
       6988.8232       2.0800137
       6989.7920       1.9790285
       6990.7607       1.9382234
       6991.7295       1.9697046
       6992.6982       1.8282977
       6993.6670       1.8786266
       6994.6357       1.8740190
       6995.6045       2.1987002
       6996.5732       2.2478712
       6997.5419       2.0670032
       6998.5107       1.9109817
       6999.4794       2.1724174
       7000.4482       2.1067162
       7001.4169       1.9023677
       7002.3857       1.9233749
       7003.3544       2.0497149
       7004.3232       2.2388653
       7005.2919       2.1572027
       7006.2607       1.9490582
       7007.2294       1.9374055
       7008.1981       1.9317998
       7009.1669       1.9812861
       7010.1356       1.9962372
       7011.1044       1.9521926
       7012.0731       2.1973372
       7013.0419       2.0416273
       7014.0106       1.9108787
       7014.9794       1.9582293
       7015.9481       2.0503535
       7016.9169       1.9766239
       7017.8856       2.1178793
       7018.8543       2.2252665
       7019.8231       2.0660776
       7020.7918       1.9517603
       7021.7606       2.0145659
       7022.7293       2.0915704
       7023.6981       2.1296052
       7024.6668       2.1279401
       7025.6356       2.0894077
       7026.6043       2.0240203
       7027.5731       2.2147607
       7028.5418       2.1186511
       7029.5105       2.0873813
       7030.4793       2.1488169
       7031.4480       2.3570748
       7032.4168       2.1859057
       7033.3855       2.0983479
       7034.3543       2.0151022
       7035.3230       2.2709224
       7036.2918       2.0796492
       7037.2605       2.2601724
       7038.2292       2.3247598
       7039.1980       2.1437946
       7040.1667       2.1842862
       7041.1355       2.2803838
       7042.1042       2.2181456
       7043.0730       2.1494794
       7044.0417       2.1490613
       7045.0105       2.2436314
       7045.9792       2.1011766
       7046.9480       1.9612156
       7047.9167       1.9953468
       7048.8854       1.9523595
       7049.8542       2.0997379
       7050.8229       2.2233198
       7051.7917       1.9472903
       7052.7604       1.9733964
       7053.7292       1.9991550
       7054.6979       1.9781448
       7055.6667       1.9830431
       7056.6354       2.0920979
       7057.6042       1.8873731
       7058.5729       2.1409099
       7059.5416       2.1459648
       7060.5104       2.1475114
       7061.4791       2.2393058
       7062.4479       1.8777961
       7063.4166       1.9244408
       7064.3854       2.0220567
       7065.3541       2.0206549
       7066.3229       1.9564149
       7067.2916       2.1275275
       7068.2604       2.1614770
       7069.2291       2.1984317
       7070.1978       2.1560773
       7071.1666       2.1282291
       7072.1353       2.1146826
       7073.1041       2.0938989
       7074.0728       2.0446392
       7075.0416       2.0013775
       7076.0103       2.2257295
       7076.9791       2.0908602
       7077.9478       2.0447607
       7078.9166       1.8669938
       7079.8853       1.9404667
       7080.8540       1.9042033
       7081.8228       2.0382050
       7082.7915       2.1206341
       7083.7603       2.0898197
       7084.7290       2.0550452
       7085.6978       2.0527546
       7086.6665       1.8798713
       7087.6353       2.0240555
       7088.6040       1.9678134
       7089.5728       2.1149990
       7090.5415       2.1631249
       7091.5102       2.0694487
       7092.4790       1.9094894
       7093.4477       2.0203128
       7094.4165       2.0051610
       7095.3852       2.2598609
       7096.3540       2.0359510
       7097.3227       2.2414848
       7098.2915       2.1556575
       7099.2602       2.0166093
       7100.2290       2.0255534
       7101.1977       2.2542439
       7102.1664       2.5209730
       7103.1352       2.4434307
       7104.1039       1.8989394
       7105.0727       1.8643579
       7106.0414       1.9295295
       7107.0102       2.5995573
       7107.9789       2.0894813
       7108.9477       2.2852445
       7109.9164       2.2040919
       7110.8851       2.1404904
       7111.8539       2.3305362
       7112.8226       2.2422536
       7113.7914       2.3132041
       7114.7601       1.9522047
       7115.7289       2.1141533
       7116.6976       1.9830730
       7117.6664       2.0669552
       7118.6351       2.0498444
       7119.6039       2.1423756
       7120.5726       2.0272175
       7121.5413       2.4132274
       7122.5101       2.1398364
       7123.4788       1.8640621
       7124.4476       2.4786764
       7125.4163       2.5940910
       7126.3851       2.3958927
       7127.3538       2.1404988
       7128.3226       2.5094386
       7129.2913       2.1193303
       7130.2601       2.1230760
       7131.2288       2.0277729
       7132.1975       2.1221089
       7133.1663       2.6161842
       7134.1350       2.1245999
       7135.1038       2.1070657
       7136.0725       2.2829823
       7137.0413       2.2896068
       7138.0100       2.1273141
       7138.9788       1.7250226
       7139.9475       1.8856417
       7140.9163       2.0135224
       7141.8850       2.0534287
       7142.8537       2.1885201
       7143.8225       1.8679605
       7144.7912       2.2906684
       7145.7600       2.4000573
       7146.7287       2.1571979
       7147.6975       2.0832162
       7148.6662       2.2070313
       7149.6350       2.1717792
       7150.6037       1.9360980
       7151.5725       2.0873395
       7152.5412       2.0704300
       7153.5099       2.0500906
       7154.4787       2.1138439
       7155.4474       2.1954702
       7156.4162       2.0687185
       7157.3849       2.0513087
       7158.3537       1.9692097
       7159.3224       1.9950191
       7160.2912       2.2360669
       7161.2599       2.3236659
       7162.2287       2.2257813
       7163.1974       2.2014014
       7164.1661       2.2207003
       7165.1349       2.1067979
       7166.1036       2.1605533
       7167.0724       2.1437170
       7168.0411       2.0322410
       7169.0099       2.1536427
       7169.9786       2.0784985
       7170.9474       2.2256996
       7171.9161       2.2540589
       7172.8849       2.1961470
       7173.8536       2.2393560
       7174.8223       2.0201103
       7175.7911       2.1920159
       7176.7598       2.1664508
       7177.7286       1.9294406
       7178.6973       2.2402769
       7179.6661       2.1817848
       7180.6348       2.1481970
       7181.6036       2.2238445
       7182.5723       2.1472340
       7183.5410       2.0981295
       7184.5098       2.1922155
       7185.4785       2.1307904
       7186.4473       2.2166580
       7187.4160       2.2106726
       7188.3848       2.1247605
       7189.3535       2.3383839
       7190.3223       2.1054236
       7191.2910       2.2308540
       7192.2598       2.0640140
       7193.2285       2.1787902
       7194.1972       2.0183702
       7195.1660       1.9752892
       7196.1347       2.0894363
       7197.1035       2.2272082
       7198.0722       2.1022762
       7199.0410       2.1154732
       7200.0097       2.2441989
       7200.9785       2.2104975
       7201.9472       2.0381494
       7202.9160       2.1694257
       7203.8847       2.0602146
       7204.8534       2.1541170
       7205.8222       2.0394959
       7206.7909       2.0546595
       7207.7597       2.3743716
       7208.7284       2.0858763
       7209.6972       2.5572563
       7210.6659       2.3414636
       7211.6347       2.4629576
       7212.6034       2.7717572
       7213.5722       2.5982084
       7214.5409       2.3816598
       7215.5096       1.9766158
       7216.4784       2.2587262
       7217.4471       2.7564801
       7218.4159       2.6997285
       7219.3846       2.4079112
       7220.3534       2.0536055
       7221.3221       2.0709892
       7222.2909       2.6905477
       7223.2596       2.5437382
       7224.2284       2.6773489
       7225.1971       2.7254502
       7226.1658       2.7946274
       7227.1346       2.6305005
       7228.1033       2.3354018
       7229.0721       2.4620317
       7230.0408       2.2945948
       7231.0096       2.1412413
       7231.9783       2.2669051
       7232.9471       1.9406926
       7233.9158       2.0350363
       7234.8846       2.3395901
       7235.8533       2.0896412
       7236.8220       2.2706157
       7237.7908       2.6090667
       7238.7595       2.2841067
       7239.7283       2.5244032
       7240.6970       2.1826929
       7241.6658       2.2899809
       7242.6345       2.2212445
       7243.6033       2.4007962
       7244.5720       2.1740995
       7245.5408       2.2511714
       7246.5095       2.2657509
       7247.4782       2.4686635
       7248.4470       2.1981793
       7249.4157       2.2624371
       7250.3845       2.3073982
       7251.3532       2.3114006
       7252.3220       2.2657282
       7253.2907       2.3539073
       7254.2595       2.2225869
       7255.2282       2.2842448
       7256.1969       2.3242452
       7257.1657       2.3638007
       7258.1344       2.4909785
       7259.1032       2.1465988
       7260.0719       2.3140502
       7261.0407       2.4645848
       7262.0094       2.4382639
       7262.9782       3.0603233
       7263.9469       2.8187611
       7264.9157       2.4753575
       7265.8844       3.1180858
       7266.8531       3.5205348
       7267.8219       3.4665199
       7268.7906       2.9512375
       7269.7594       2.9824619
       7270.7281       2.3506445
       7271.6969       2.5072543
       7272.6656       2.5999757
       7273.6344       2.6749772
       7274.6031       3.1716510
       7275.5719       3.0048633
       7276.5406       2.4432865
       7277.5093       2.3162912
       7278.4781       2.2096424
       7279.4468       2.2202762
       7280.4156       2.3496194
       7281.3843       2.5564484
       7282.3531       2.3871466
       7283.3218       2.2327379
       7284.2906       2.6776703
       7285.2593       2.6335831
       7286.2281       2.3280478
       7287.1968       2.1303861
       7288.1655       2.3611435
       7289.1343       2.3965307
       7290.1030       2.1086224
       7291.0718       2.5101150
       7292.0405       2.4730788
       7293.0093       2.3693635
       7293.9780       2.3660412
       7294.9468       2.3589369
       7295.9155       1.9125555
       7296.8843       2.2258607
       7297.8530       3.0555371
       7298.8217       3.4431515
       7299.7905       3.3369085
       7300.7592       3.4547391
       7301.7280       2.7482193
       7302.6967       2.7916861
       7303.6655       2.6507692
       7304.6342       2.4102454
       7305.6030       2.3084474
       7306.5717       2.2643581
       7307.5405       2.4660060
       7308.5092       2.5618823
       7309.4779       2.2950596
       7310.4467       2.6480032
       7311.4154       2.7841971
       7312.3842       3.2100580
       7313.3529       2.4797468
       7314.3217       1.9695250
       7315.2904       3.3253436
       7316.2592       3.0958888
       7317.2279       2.3063028
       7318.1966       2.4339939
       7319.1654       2.4758365
       7320.1341       2.5204591
       7321.1029       2.4783513
       7322.0716       2.3532718
       7323.0404       2.4361197
       7324.0091       2.4289560
       7324.9779       2.5078969
       7325.9466       2.6047543
       7326.9154       2.7240252
       7327.8841       2.6587921
       7328.8528       2.1358793
       7329.8216       2.5663080
       7330.7903       2.7002273
       7331.7591       2.6998617
       7332.7278       2.3478386
       7333.6966       2.2865967
       7334.6653       2.4344015
       7335.6341       2.3589714
       7336.6028       2.1516787
       7337.5716      0.64575963
       7338.5403       2.9520917
       7339.5090       2.6241514
       7340.4778       2.4195775
       7341.4465       2.6441408
       7342.4153       3.1099437
       7343.3840       3.5827081
       7344.3528       2.6528952
       7345.3215       2.9032329
       7346.2903       2.3084746
       7347.2590       2.4781081
       7348.2278       2.3386298
       7349.1965       2.2784752
       7350.1652       2.4099577
       7351.1340       2.3563707
       7352.1027       2.5373106
       7353.0715       2.3556780
       7354.0402       2.2791029
       7355.0090       2.4950131
       7355.9777       2.5621526
       7356.9465       2.6189887
       7357.9152       3.1766231
       7358.8840       2.8190734
       7359.8527       2.8585421
       7360.8214       2.7946713
       7361.7902       2.6619932
       7362.7589       2.7996803
       7363.7277       2.1870737
       7364.6964       2.3014884
       7365.6652       2.9130342
       7366.6339       2.5450295
       7367.6027       2.5023868
       7368.5714       2.2444969
       7369.5402       2.6876583
       7370.5089       2.8935564
       7371.4776       3.3081006
       7372.4464       2.6680235
       7373.4151       2.7842170
       7374.3839       2.9176622
       7375.3526       2.6088524
       7376.3214       2.3865351
       7377.2901       2.3333456
       7378.2589       2.3089714
       7379.2276       2.1945400
       7380.1964       2.3394787
       7381.1651       2.5404497
       7382.1338       2.5728541
       7383.1026       2.5124776
       7384.0713       2.4517925
       7385.0401       2.3403526
       7386.0088       2.5124416
       7386.9776       2.4634760
       7387.9463       2.4665809
       7388.9151       2.7056290
       7389.8838       2.4818122
       7390.8525       2.4725768
       7391.8213       2.4521497
       7392.7900       2.3763688
       7393.7588       2.4472059
       7394.7275       2.2787508
       7395.6963       2.5547110
       7396.6650       2.6330736
       7397.6338       2.2747011
       7398.6025       2.3206504
       7399.5713       2.4610542
       7400.5400       2.4463581
       7401.5087       2.1691441
       7402.4775       2.2562951
       7403.4462       2.5022099
       7404.4150       2.6943272
       7405.3837       2.5010860
       7406.3525       2.5179028
       7407.3212       2.6570801
       7408.2900       2.7966479
       7409.2587       2.4055913
       7410.2275       2.5030817
       7411.1962       2.5268855
       7412.1649       2.5710567
       7413.1337       2.4524417
       7414.1024       2.3361163
       7415.0712       2.5332928
       7416.0399       2.5839466
       7417.0087       2.4152945
       7417.9774       2.4898620
       7418.9462       2.3114357
       7419.9149       2.5212697
       7420.8837       2.2428041
       7421.8524       2.4925946
       7422.8211       2.5233097
       7423.7899       2.4157064
       7424.7586       2.5345569
       7425.7274       2.4916556
       7426.6961       2.5961765
       7427.6649       2.3059553
       7428.6336       2.5639728
       7429.6024       2.4000675
       7430.5711       2.6243862
       7431.5399       2.5178008
       7432.5086       2.5030524
       7433.4773       2.6354401
       7434.4461       2.8419697
       7435.4148       2.4342529
       7436.3836       2.3464482
       7437.3523       3.0489338
       7438.3211       2.7800865
       7439.2898       2.8700466
       7440.2586       2.4783188
       7441.2273       2.6703976
       7442.1961       2.6985481
       7443.1648       2.5188331
       7444.1335       2.5125134
       7445.1023       2.7898755
       7446.0710       2.5768783
       7447.0398       2.7028899
       7448.0085       2.7090269
       7448.9773       2.4504638
       7449.9460       2.5986159
       7450.9148       2.5708282
       7451.8835       2.6257817
       7452.8523       2.7509088
       7453.8210       2.7227831
       7454.7897       2.6320646
       7455.7585       2.7275150
       7456.7272       2.6452464
       7457.6960       2.6948855
       7458.6647       2.5201648
       7459.6335       2.5378391
       7460.6022       2.6271540
       7461.5710       2.4091968
       7462.5397       2.3787257
       7463.5084       2.5578072
       7464.4772       2.4737875
       7465.4459       2.5447090
       7466.4147       2.5895999
       7467.3834       2.5521797
       7468.3522       2.4394719
       7469.3209       2.5296925
       7470.2897       2.5211733
       7471.2584       2.6456268
       7472.2272       2.3953408
       7473.1959       2.5186117
       7474.1646       2.6296932
       7475.1334       2.5196541
       7476.1021       2.3979266
       7477.0709       2.4607949
       7478.0396       2.4189830
       7479.0084       2.3576186
       7479.9771       2.6361178
       7480.9459       2.4965657
       7481.9146       2.5538538
       7482.8834       2.6010149
       7483.8521       2.5989317
       7484.8208       2.5166457
       7485.7896       2.5081021
       7486.7583       2.8068563
       7487.7271       2.5625542
       7488.6958       2.7302897
       7489.6646       2.8759985
       7490.6333       2.8479739
       7491.6021       2.6089414
       7492.5708       2.8196151
       7493.5396       2.3127001
       7494.5083       2.4139671
       7495.4770       2.3788059
       7496.4458       2.4595595
       7497.4145       2.5852988
       7498.3833       2.6032003
       7499.3520       2.6634488
       7500.3208       2.6893971
       7501.2895       2.5323014
       7502.2583       2.4932358
       7503.2270       2.4226715
       7504.1958       2.5221336
       7505.1645       2.7340418
       7506.1332       2.8213078
       7507.1020       2.7047983
       7508.0707       2.6141795
       7509.0395       2.2966190
       7510.0082       2.4141325
       7510.9770       2.4517407
       7511.9457       2.4825568
       7512.9145       2.5862545
       7513.8832       2.3957887
       7514.8520       2.5546142
       7515.8207       2.6171440
       7516.7894       2.5157567
       7517.7582       2.5197183
       7518.7269       2.4532956
       7519.6957       2.5139379
       7520.6644       2.7319757
       7521.6332       2.5623427
       7522.6019       2.6641132
       7523.5707       2.5611772
       7524.5394       2.5690708
       7525.5082       2.8245978
       7526.4769       2.6377794
       7527.4456       2.7895424
       7528.4144       2.9039519
       7529.3831       2.7383518
       7530.3519       2.7100605
       7531.3206       2.6551825
       7532.2894       2.5081775
       7533.2581       2.7447146
       7534.2269       2.7618665
       7535.1956       2.6074335
       7536.1643       2.8421780
       7537.1331       2.8115197
       7538.1018       2.8431747
       7539.0706       2.6946211
       7540.0393       2.6030234
       7541.0081       2.8533155
       7541.9768       2.6752878
       7542.9456       2.7756316
       7543.9143       2.8623465
       7544.8831       2.7420626
       7545.8518       2.4907115
       7546.8205       2.6518552
       7547.7893       2.6935240
       7548.7580       2.5954780
       7549.7268       2.5529492
       7550.6955       2.8742709
       7551.6643       2.7036033
       7552.6330       2.6961714
       7553.6018       2.9013165
       7554.5705       2.7834722
       7555.5393       2.8113175
       7556.5080       2.9079615
       7557.4767       2.8608684
       7558.4455       3.4059365
       7559.4142       2.9888353
       7560.3830       3.0902667
       7561.3517       2.9192730
       7562.3205       2.8077604
       7563.2892       2.8454112
       7564.2580       2.7274774
       7565.2267       2.7302407
       7566.1955       2.8228250
       7567.1642       2.8006494
       7568.1329       2.7667598
       7569.1017       3.0108188
       7570.0704       2.9066986
       7571.0392       2.8100289
       7572.0079       2.7703958
       7572.9767       2.9148188
       7573.9454       2.6820574
       7574.9142       2.8248075
       7575.8829       2.5453755
       7576.8517       2.6904812
       7577.8204       2.8679368
       7578.7891       2.7463538
       7579.7579       2.7606504
       7580.7266       2.7287957
       7581.6954       2.4570581
       7582.6641       2.8584216
       7583.6329       2.5977721
       7584.6016       2.6134238
       7585.5704       2.6642805
       7586.5391       2.4994172
       7587.5079       2.9336297
       7588.4766       2.9489310
       7589.4453       2.6133536
       7590.4141       2.5543353
       7591.3828       2.7758052
       7592.3516       2.5099207
       7593.3203       2.6082539
       7594.2891       2.6844429
       7595.2578       2.8241923
       7596.2266       2.6040691
       7597.1953       2.5870629
       7598.1641       2.6753048
       7599.1328       2.7429197
       7600.1015       2.6099513
       7601.0703       2.6607398
       7602.0390       2.4746954
       7603.0078       2.6053155
       7603.9765       2.6476112
       7604.9453       2.5582802
       7605.9140       2.6304297
       7606.8828       2.7959950
       7607.8515       2.7022124
       7608.8202       2.9331128
       7609.7890       2.7772129
       7610.7577       2.9916597
       7611.7265       2.7855076
       7612.6952       2.8470710
       7613.6640       2.6896355
       7614.6327       2.7720861
       7615.6015       2.8757971
       7616.5702       2.7111060
       7617.5390       2.8038402
       7618.5077       2.7418582
       7619.4764       2.7231421
       7620.4452       2.7613611
       7621.4139       2.7214963
       7622.3827       2.6373562
       7623.3514       2.6140198
       7624.3202       2.7328214
       7625.2889       2.9468895
       7626.2577       2.6900061
       7627.2264       2.8302501
       7628.1952       2.8944175
       7629.1639       2.9439539
       7630.1326       2.6905292
       7631.1014       2.6406939
       7632.0701       2.6264660
       7633.0389       2.7038129
       7634.0076       2.6275838
       7634.9764       2.5220332
       7635.9451       2.4691784
       7636.9139       2.5131901
       7637.8826       2.7962867
       7638.8514       2.5340272
       7639.8201       2.6698462
       7640.7888       2.5812124
       7641.7576       2.7927463
       7642.7263       2.6959297
       7643.6951       2.4508074
       7644.6638       2.4762929
       7645.6326       2.7051832
       7646.6013       2.5875010
       7647.5701       2.1916567
       7648.5388       2.5199770
       7649.5076       2.5196718
       7650.4763       2.2374009
       7651.4450       2.2676949
       7652.4138       2.7295663
       7653.3825       2.9495710
       7654.3513       3.2766147
       7655.3200       3.6777723
       7656.2888       2.5652704
       7657.2575       3.3114725
       7658.2263       3.1964608
       7659.1950       4.3385148
       7660.1638       3.3720176
       7661.1325       3.2454377
       7662.1012       2.5196302
       7663.0700       2.8313174
       7664.0387       2.4093891
       7665.0075       2.0104059
       7665.9762       2.0931379
       7666.9450       2.9563426
       7667.9137       2.3257378
       7668.8825       2.6764761
       7669.8512       3.0101403
       7670.8199       2.5386481
       7671.7887       2.6067147
       7672.7574       2.0907700
       7673.7262       1.5248784
       7674.6949       2.0382416
       7675.6637       2.1639090
       7676.6324       2.1960073
       7677.6012       2.1094347
       7678.5699       1.7160276
       7679.5387       1.2757000
       7680.5074       1.5217387
       7681.4761       1.3665732
       7682.4449       2.2126726
       7683.4136       1.7295201
       7684.3824       1.5040812
       7685.3511       1.6838555
       7686.3199       1.6584174
       7687.2886       1.8912647
       7688.2574       2.1214034
       7689.2261       2.4395688
       7690.1949       2.4631199
       7691.1636       2.6408378
       7692.1323       2.4360969
       7693.1011       2.1891642
       7694.0698       1.9195344
       7695.0386       1.8428711
       7696.0073       1.8063192
       7696.9761       1.9418789
       7697.9448       1.8880590
       7698.9136       2.1300855
       7699.8823       2.2337267
       7700.8511       2.1691302
       7701.8198       2.2604985
       7702.7885       2.2774290
       7703.7573       2.4906236
       7704.7260       2.2094992
       7705.6948       1.9909198
       7706.6635       2.0217620
       7707.6323       2.0565665
       7708.6010       2.3180642
       7709.5698       2.5894944
       7710.5385       2.6859231
       7711.5073       3.6949154
       7712.4760       3.0345798
       7713.4447       4.3589982
       7714.4135       4.6093805
       7715.3822       2.8121986
       7716.3510       2.1946595
       7717.3197       1.9667812
       7718.2885       2.0995770
       7719.2572       2.7132069
       7720.2260       2.5973493
       7721.1947       2.3808727
       7722.1635       2.9452037
       7723.1322       2.6599160
       7724.1009       2.7024133
       7725.0697       2.5548390
       7726.0384       2.6876544
       7727.0072       2.6478864
       7727.9759       2.6307124
       7728.9447       2.8733141
       7729.9134       2.3955265
       7730.8822       2.4611776
       7731.8509       2.6401215
       7732.8197       2.5925437
       7733.7884       2.4483494
       7734.7571       2.6103958
       7735.7259       2.9498310
       7736.6946       2.7099786
       7737.6634       2.6223485
       7738.6321       2.5985820
       7739.6009       2.6374984
       7740.5696       2.0838661
       7741.5384       2.3507369
       7742.5071       2.4188524
       7743.4758       2.3764051
       7744.4446       2.3158640
       7745.4133       2.9272881
       7746.3821       2.4261744
       7747.3508       2.9964204
       7748.3196       2.7027121
       7749.2883       3.8360275
       7750.2571       2.7331639
       7751.2258       2.4252204
       7752.1946       2.1803341
       7753.1633       2.1423404
       7754.1320       1.8413363
       7755.1008       1.9122857
       7756.0695       2.2652403
       7757.0383       2.2576914
       7758.0070       2.5074081
       7758.9758       2.4062206
       7759.9445       1.9484076
       7760.9133       2.0948967
       7761.8820       2.8307729
       7762.8508       3.7877014
       7763.8195       2.4430736
       7764.7882       4.0389902
       7765.7570       2.7487178
       7766.7257       2.1125701
       7767.6945       2.4358801
       7768.6632       2.5278322
       7769.6320       2.6305467
       7770.6007       2.7443997
       7771.5695       2.6107515
       7772.5382       2.5288832
       7773.5070       2.7008740
       7774.4757       2.4768405
       7775.4444       2.3217402
       7776.4132       2.4774660
       7777.3819       2.8574574
       7778.3507       2.2127138
       7779.3194       2.4191103
       7780.2882       2.6756803
       7781.2569       2.5916581
       7782.2257       1.9761392
       7783.1944       2.6242983
       7784.1632       2.5630492
       7785.1319       2.3939652
       7786.1006       2.6063140
       7787.0694       2.2957827
       7788.0381       2.6042625
       7789.0069       2.4123030
       7789.9756       2.4117607
       7790.9444       2.7361094
       7791.9131       3.6631920
       7792.8819       4.2237018
       7793.8506       2.5369793
       7794.8194       3.1226424
       7795.7881       2.6074079
       7796.7568       1.8014332
       7797.7256       2.2144533
       7798.6943       2.3995959
       7799.6631       2.6941399
       7800.6318       2.7351209
       7801.6006       2.7025554
       7802.5693       2.7775461
       7803.5381       2.8940746
       7804.5068       2.6674691
       7805.4756       2.7482725
       7806.4443       2.5844901
       7807.4130       2.5159782
       7808.3818       2.4028145
       7809.3505       2.1201023
       7810.3193       2.1922751
       7811.2880       2.1550031
       7812.2568       1.9445688
       7813.2255       2.9694650
       7814.1943       2.5712076
       7815.1630       2.7545475
       7816.1317       2.7465700
       7817.1005       3.9358260
       7818.0692       3.1119794
       7819.0380       2.6678275
       7820.0067       2.8780259
       7820.9755       2.9935405
       7821.9442       2.7141833
       7822.9130       2.9353604
       7823.8817       2.3474748
       7824.8505       2.3867600
       7825.8192       3.0205004
       7826.7879       2.6560407
       7827.7567       2.8359384
       7828.7254       2.1812027
       7829.6942       2.3740203
       7830.6629       2.7884449
       7831.6317       1.7673351
       7832.6004       2.3438713
       7833.5692       2.6057809
       7834.5379       2.8955475
       7835.5067       2.4900500
       7836.4754       2.7464709
       7837.4441       2.9089340
       7838.4129       2.8293067
       7839.3816       2.7198622
       7840.3504       2.6916710
       7841.3191       2.7569848
       7842.2879       2.9474635
       7843.2566       2.3684469
       7844.2254       3.0843884
       7845.1941       2.8978218
       7846.1629       2.7943938
       7847.1316       2.3891685
       7848.1003       2.4734172
       7849.0691       2.3595518
       7850.0378       2.6181450
       7851.0066       2.3032332
       7851.9753       2.7255515
       7852.9441       2.7269117
       7853.9128       3.4161005
       7854.8816       2.3425223
       7855.8503       3.4910686
       7856.8191       2.5880284
       7857.7878       2.5493731
       7858.7565       2.2642673
       7859.7253       2.4347000
       7860.6940       2.8756709
       7861.6628       2.4891784
       7862.6315       2.7533545
       7863.6003       2.3535064
       7864.5690       2.4025722
       7865.5378       2.3758999
       7866.5065       2.6069250
       7867.4753       3.4403044
       7868.4440       2.5194436
       7869.4127       2.4189593
       7870.3815       2.5555655
       7871.3502       2.8666668
       7872.3190       2.6113126
       7873.2877       2.9751786
       7874.2565       2.5349332
       7875.2252       2.5685384
       7876.1940       2.8309817
       7877.1627       2.6880476
       7878.1315       2.6338540
       7879.1002       2.2746271
       7880.0689       2.6823281
       7881.0377       2.7756295
       7882.0064       2.5086768
       7882.9752       2.4418140
       7883.9439       2.4885154
       7884.9127       2.5210783
       7885.8814       2.3886627
       7886.8502       2.5133426
       7887.8189       2.3640265
       7888.7876       2.4864895
       7889.7564       2.4841674
       7890.7251       2.5229228
       7891.6939       2.5697127
       7892.6626       2.6176755
       7893.6314       2.7537927
       7894.6001       2.7829332
       7895.5689       2.4478978
       7896.5376       2.8652132
       7897.5064       3.0830351
       7898.4751       3.2412974
       7899.4438       3.0453263
       7900.4126       3.1694608
       7901.3813       2.3772949
       7902.3501       2.5062259
       7903.3188       2.7741148
       7904.2876       2.2556909
       7905.2563       2.5273084
       7906.2251       2.5761356
       7907.1938       3.1341355
       7908.1626       3.1568206
       7909.1313       2.7277381
       7910.1000       2.3124515
       7911.0688       2.2442312
       7912.0375       2.5235967
       7913.0063       2.2371154
       7913.9750       2.5071941
       7914.9438       2.4189585
       7915.9125       2.6571693
       7916.8813       2.9328772
       7917.8500       2.6841113
       7918.8188       2.8541238
       7919.7875       2.7071509
       7920.7562       2.5994260
       7921.7250       2.5375007
       7922.6937       2.5238042
       7923.6625       2.3398904
       7924.6312       2.5042901
       7925.6000       2.7318443
       7926.5687       2.5058572
       7927.5375       2.7302931
       7928.5062       2.5188903
       7929.4750       2.4394355
       7930.4437       2.7935763
       7931.4124       2.4789720
       7932.3812       2.4631378
       7933.3499       2.8248044
       7934.3187       2.7004562
       7935.2874       2.7869443
       7936.2562       2.8989531
       7937.2249       2.5138712
       7938.1937       2.9962760
       7939.1624       2.6735063
       7940.1312       2.9490163
       7941.0999       2.5846627
       7942.0686       2.7191900
       7943.0374       2.6496931
       7944.0061       2.5044290
       7944.9749       2.5001650
       7945.9436       2.5796404
       7946.9124       2.7452100
       7947.8811       3.1428421
       7948.8499       3.0796335
       7949.8186       2.6673966
       7950.7874       3.5996376
       7951.7561       2.8450209
       7952.7248       2.9052710
       7953.6936       2.6159870
       7954.6623       3.3347094
       7955.6311       3.0940096
       7956.5998       3.2323302
       7957.5686       2.6549298
       7958.5373       3.6089054
       7959.5061       2.8382923
       7960.4748       2.7339182
       7961.4435       3.1452505
       7962.4123       2.7510665
       7963.3810       2.9034462
       7964.3498       3.0345229
       7965.3185       3.3567545
       7966.2873       2.4936534
       7967.2560       2.7660857
       7968.2248       2.6733440
       7969.1935       2.7665715
       7970.1623       3.2628795
       7971.1310       3.1981926
       7972.0997       2.8614399
       7973.0685       2.9519455
       7974.0372       3.0521478
       7975.0060       3.3473521
       7975.9747       2.8433981
       7976.9435       2.4173550
       7977.9122       2.7443368
       7978.8810       3.1262895
       7979.8497       2.8586267
       7980.8185       2.9074512
       7981.7872       2.6235394
       7982.7559       2.7096450
       7983.7247       3.2427924
       7984.6934       3.0133380
       7985.6622       2.9795212
       7986.6309       3.0474451
       7987.5997       3.1065015
       7988.5684       3.2899922
       7989.5372       3.5130170
       7990.5059       3.0291657
       7991.4747       2.3428842
       7992.4434       3.5773537
       7993.4121       2.7814653
       7994.3809       2.7068073
       7995.3496       2.7912921
       7996.3184       2.6631571
       7997.2871       2.8593509
       7998.2559       2.7529691
       7999.2246       3.0122598
       8000.1934       2.8999954
       8001.1621       3.0165764
       8002.1309       2.8162687
       8003.0996       2.2999656
       8004.0683       2.7936662
       8005.0371       2.6600155
       8006.0058       2.7790009
       8006.9746       2.6647571
       8007.9433       2.8342752
       8008.9121       3.0408862
       8009.8808       2.5964436
       8010.8496       2.7613788
       8011.8183       2.9842881
       8012.7871       3.2564459
       8013.7558       2.9030035
       8014.7245       2.7429442
       8015.6933       2.6428892
       8016.6620       2.9746147
       8017.6308       2.9713542
       8018.5995       2.6722473
       8019.5683       2.5755914
       8020.5370       2.7415087
       8021.5058       2.6696992
       8022.4745       2.6356875
       8023.4432       2.2678166
       8024.4120       2.5548706
       8025.3807       2.7473298
       8026.3495       2.8399420
       8027.3182       2.9325946
       8028.2870       2.6656489
       8029.2557       2.7344854
       8030.2245       2.5879883
       8031.1932       2.8407099
       8032.1620       2.8152015
       8033.1307       2.9125178
       8034.0994       2.8399064
       8035.0682       2.8291034
       8036.0369       2.6945830
       8037.0057       2.6436978
       8037.9744       3.0932209
       8038.9432       2.6594499
       8039.9119       3.0589960
       8040.8807       2.7613650
       8041.8494       2.9181627
       8042.8182       2.9924988
       8043.7869       2.7894138
       8044.7556       3.1646537
       8045.7244       2.4615500
       8046.6931       3.3234614
       8047.6619       2.8806262
       8048.6306       2.4449700
       8049.5994       3.5292301
       8050.5681       3.9912129
       8051.5369       2.5890943
       8052.5056       2.6224949
       8053.4744       2.7158620
       8054.4431       3.0802346
       8055.4118       2.7466746
       8056.3806       3.2858761
       8057.3493       3.0116291
       8058.3181       2.9069952
       8059.2868       2.9251336
       8060.2556       3.2918585
       8061.2243       3.0437438
       8062.1931       3.1753414
