# wavelength flux
       2832.7428      0.16578340
       2833.7201     0.066153885
       2834.6973     0.054840043
       2835.6746     0.089478278
       2836.6518      0.23728948
       2837.6291     0.091534941
       2838.6063     0.096713536
       2839.5836     0.023004437
       2840.5608     0.086668840
       2841.5381      0.11008838
       2842.5153      0.13674587
       2843.4925      0.18511563
       2844.4698     0.087223113
       2845.4470      0.10955381
       2846.4243     0.070323486
       2847.4015     0.038673397
       2848.3788      0.14771268
       2849.3560      0.11591514
       2850.3333      0.11383665
       2851.3105     0.093079149
       2852.2878     0.093058565
       2853.2650    0.0055657370
       2854.2422     0.099489663
       2855.2195      0.13217673
       2856.1967     0.085738165
       2857.1740      0.14162015
       2858.1512      0.12857925
       2859.1285      0.10146882
       2860.1057      0.15030341
       2861.0830      0.18535756
       2862.0602      0.16322426
       2863.0375      0.11235179
       2864.0147     0.060019839
       2864.9919     0.047044103
       2865.9692      0.15650438
       2866.9464      0.13689150
       2867.9237      0.18314793
       2868.9009     0.098573901
       2869.8782     0.075301220
       2870.8554      0.15033139
       2871.8327     0.093045281
       2872.8099     0.095967118
       2873.7872      0.19137044
       2874.7644      0.12884636
       2875.7416     0.066741331
       2876.7189      0.12865030
       2877.6961      0.13937434
       2878.6734      0.16277649
       2879.6506      0.14448168
       2880.6279      0.13454245
       2881.6051      0.15424874
       2882.5824      0.11296462
       2883.5596     0.068172416
       2884.5369      0.14420671
       2885.5141     0.030071171
       2886.4913      0.17813471
       2887.4686      0.16819790
       2888.4458      0.16645108
       2889.4231      0.16293017
       2890.4003      0.12269048
       2891.3776      0.16631674
       2892.3548      0.12164135
       2893.3321      0.17955051
       2894.3093      0.21436318
       2895.2866      0.13391431
       2896.2638     0.095676059
       2897.2411      0.19249868
       2898.2183      0.18093402
       2899.1955      0.12414385
       2900.1728      0.12056406
       2901.1500      0.17415971
       2902.1273     0.094134429
       2903.1045      0.12813882
       2904.0818      0.21211186
       2905.0590      0.10862851
       2906.0363      0.10807320
       2907.0135      0.11070738
       2907.9908     0.089791341
       2908.9680      0.13787305
       2909.9452      0.18340671
       2910.9225      0.15273251
       2911.8997      0.10894899
       2912.8770     0.095490780
       2913.8542      0.17978945
       2914.8315      0.10044643
       2915.8087      0.12356755
       2916.7860      0.10590729
       2917.7632     0.095521471
       2918.7405      0.10803356
       2919.7177      0.15846378
       2920.6949      0.15495011
       2921.6722      0.12182603
       2922.6494      0.10083601
       2923.6267      0.13284410
       2924.6039      0.13432199
       2925.5812      0.15909837
       2926.5584      0.11962722
       2927.5357      0.17947629
       2928.5129      0.20040757
       2929.4902      0.18176576
       2930.4674      0.21846197
       2931.4446      0.12096560
       2932.4219      0.14492526
       2933.3991      0.21128870
       2934.3764      0.10741583
       2935.3536      0.18352532
       2936.3309      0.18578696
       2937.3081      0.14477711
       2938.2854      0.11376826
       2939.2626      0.12347116
       2940.2399      0.14601333
       2941.2171      0.15577770
       2942.1943      0.15215710
       2943.1716      0.14507520
       2944.1488      0.16225079
       2945.1261      0.13793405
       2946.1033      0.15082441
       2947.0806      0.18102585
       2948.0578      0.17624003
       2949.0351      0.12863634
       2950.0123      0.16000448
       2950.9896      0.22094130
       2951.9668      0.16956957
       2952.9440      0.14027808
       2953.9213      0.15182493
       2954.8985      0.15082683
       2955.8758      0.21628696
       2956.8530      0.19186342
       2957.8303      0.11804189
       2958.8075      0.13195389
       2959.7848      0.14892958
       2960.7620      0.16057787
       2961.7393      0.15577473
       2962.7165      0.11747325
       2963.6937      0.12110367
       2964.6710      0.11256251
       2965.6482      0.20615371
       2966.6255      0.20083180
       2967.6027      0.13627607
       2968.5800      0.19481393
       2969.5572      0.17665804
       2970.5345      0.13266153
       2971.5117      0.16549828
       2972.4890      0.16959307
       2973.4662      0.19829076
       2974.4435      0.19474107
       2975.4207      0.17999805
       2976.3979      0.22366482
       2977.3752      0.17543874
       2978.3524      0.23569469
       2979.3297      0.19880139
       2980.3069      0.10647556
       2981.2842      0.21147380
       2982.2614      0.22961746
       2983.2387      0.17143146
       2984.2159      0.15431978
       2985.1932      0.21322907
       2986.1704      0.19839077
       2987.1476      0.21467860
       2988.1249      0.14767918
       2989.1021      0.18070087
       2990.0794      0.13864087
       2991.0566      0.20859657
       2992.0339      0.21949000
       2993.0111      0.19330955
       2993.9884      0.19908420
       2994.9656      0.19073726
       2995.9429      0.21190507
       2996.9201      0.15789868
       2997.8973      0.23275483
       2998.8746      0.18210217
       2999.8518      0.19527272
       3000.8291      0.14126697
       3001.8063      0.14536497
       3002.7836      0.16829186
       3003.7608      0.16642756
       3004.7381      0.22128099
       3005.7153      0.19592031
       3006.6926      0.16552814
       3007.6698      0.19059831
       3008.6470      0.18087906
       3009.6243      0.15448394
       3010.6015      0.16970382
       3011.5788      0.18105651
       3012.5560      0.19499893
       3013.5333      0.16498982
       3014.5105      0.19303281
       3015.4878      0.16635070
       3016.4650      0.19422788
       3017.4423      0.20012696
       3018.4195      0.17501704
       3019.3967      0.14209608
       3020.3740      0.15430640
       3021.3512      0.18317127
       3022.3285      0.16236443
       3023.3057      0.21154339
       3024.2830      0.16047307
       3025.2602      0.19938568
       3026.2375      0.21613832
       3027.2147      0.22890358
       3028.1920      0.17524845
       3029.1692      0.21562790
       3030.1464      0.15498569
       3031.1237      0.29610327
       3032.1009      0.19992998
       3033.0782      0.23497113
       3034.0554      0.24176662
       3035.0327      0.24362687
       3036.0099      0.19831119
       3036.9872      0.26740613
       3037.9644      0.18396402
       3038.9417      0.25894323
       3039.9189      0.19606717
       3040.8962      0.21687877
       3041.8734      0.17967591
       3042.8506      0.17141140
       3043.8279      0.23389413
       3044.8051      0.19875759
       3045.7824      0.18454721
       3046.7596      0.22650203
       3047.7369      0.16103900
       3048.7141      0.24668606
       3049.6914      0.19020386
       3050.6686      0.18631443
       3051.6459      0.21120165
       3052.6231      0.21720831
       3053.6003      0.22225626
       3054.5776      0.27126479
       3055.5548      0.23556130
       3056.5321      0.24876365
       3057.5093      0.22296209
       3058.4866      0.21598587
       3059.4638      0.18603060
       3060.4411      0.20157570
       3061.4183      0.18821405
       3062.3956      0.24949611
       3063.3728      0.23959012
       3064.3500      0.23371297
       3065.3273      0.21374388
       3066.3045      0.21897709
       3067.2818      0.23760843
       3068.2590      0.25976124
       3069.2363      0.22016218
       3070.2135      0.23489848
       3071.1908      0.25488399
       3072.1680      0.21886059
       3073.1453      0.20604332
       3074.1225      0.18418547
       3075.0997      0.21621759
       3076.0770      0.21757379
       3077.0542      0.17878798
       3078.0315      0.18738709
       3079.0087      0.23018174
       3079.9860      0.20005387
       3080.9632      0.21891076
       3081.9405      0.24197155
       3082.9177      0.22398104
       3083.8950      0.19215157
       3084.8722      0.17436369
       3085.8494      0.18205565
       3086.8267      0.17980257
       3087.8039      0.19573981
       3088.7812      0.24352938
       3089.7584      0.27906550
       3090.7357      0.26799118
       3091.7129      0.21266486
       3092.6902      0.19714114
       3093.6674      0.21878949
       3094.6447      0.18972581
       3095.6219      0.20655187
       3096.5991      0.26760038
       3097.5764      0.28830353
       3098.5536      0.26271023
       3099.5309      0.23500763
       3100.5081      0.24853316
       3101.4854      0.26862108
       3102.4626      0.22973243
       3103.4399      0.21516838
       3104.4171      0.25600360
       3105.3944      0.20505024
       3106.3716      0.18362614
       3107.3488      0.25125330
       3108.3261      0.19208677
       3109.3033      0.20052572
       3110.2806      0.24843377
       3111.2578      0.21724147
       3112.2351      0.23809583
       3113.2123      0.24035870
       3114.1896      0.27952952
       3115.1668      0.23606629
       3116.1441      0.28249592
       3117.1213      0.27635720
       3118.0986      0.24617361
       3119.0758      0.20770163
       3120.0530      0.22026843
       3121.0303      0.26979168
       3122.0075      0.25163100
       3122.9848      0.22913095
       3123.9620      0.22281008
       3124.9393      0.26809341
       3125.9165      0.21037725
       3126.8938     0.083169021
       3127.8710      0.11480281
       3128.8483      0.15546681
       3129.8255      0.23331101
       3130.8027      0.20993170
       3131.7800      0.25306268
       3132.7572      0.25954071
       3133.7345      0.23744016
       3134.7117      0.22141272
       3135.6890      0.24589346
       3136.6662      0.24323703
       3137.6435      0.27148494
       3138.6207      0.27827059
       3139.5980      0.25809069
       3140.5752      0.27486732
       3141.5524      0.26858882
       3142.5297      0.29467093
       3143.5069      0.31252103
       3144.4842      0.28201709
       3145.4614      0.23450665
       3146.4387      0.22803523
       3147.4159      0.24337578
       3148.3932      0.23499139
       3149.3704      0.23034995
       3150.3477      0.19242167
       3151.3249      0.22910579
       3152.3021      0.23340019
       3153.2794      0.18982139
       3154.2566      0.22509471
       3155.2339      0.24659807
       3156.2111      0.31349360
       3157.1884      0.27293392
       3158.1656      0.26435689
       3159.1429      0.27704604
       3160.1201      0.22353859
       3161.0974      0.26604602
       3162.0746      0.28254965
       3163.0518      0.23634034
       3164.0291      0.27161371
       3165.0063      0.29415236
       3165.9836      0.28468688
       3166.9608      0.29127120
       3167.9381      0.25764858
       3168.9153      0.23356431
       3169.8926      0.29087323
       3170.8698      0.22198162
       3171.8471      0.23261095
       3172.8243      0.26292737
       3173.8015      0.24200686
       3174.7788      0.19526962
       3175.7560      0.20266840
       3176.7333      0.29101774
       3177.7105      0.29281079
       3178.6878      0.23974323
       3179.6650      0.28472394
       3180.6423      0.28492547
       3181.6195      0.22465750
       3182.5968      0.22784093
       3183.5740      0.23428227
       3184.5512      0.23239539
       3185.5285      0.28183764
       3186.5057      0.26899347
       3187.4830      0.23782357
       3188.4602      0.26236944
       3189.4375      0.25163079
       3190.4147      0.28477285
       3191.3920      0.32493721
       3192.3692      0.33727756
       3193.3465      0.31501657
       3194.3237      0.30952834
       3195.3010      0.30114172
       3196.2782      0.27551641
       3197.2554      0.33797815
       3198.2327      0.30048598
       3199.2099      0.28814465
       3200.1872      0.28403845
       3201.1644      0.27424613
       3202.1417      0.26111030
       3203.1189      0.24206450
       3204.0962      0.22239166
       3205.0734      0.30866238
       3206.0507      0.32259470
       3207.0279      0.31552694
       3208.0051      0.20106729
       3208.9824      0.28640966
       3209.9596      0.27288851
       3210.9369      0.31876131
       3211.9141      0.33792622
       3212.8914      0.26297083
       3213.8686      0.30581199
       3214.8459      0.31517512
       3215.8231      0.29380376
       3216.8004      0.24309004
       3217.7776      0.28800592
       3218.7548      0.29116737
       3219.7321      0.26457274
       3220.7093      0.24799745
       3221.6866      0.21843889
       3222.6638      0.27830367
       3223.6411      0.23606618
       3224.6183      0.19244147
       3225.5956      0.20701192
       3226.5728      0.24004175
       3227.5501      0.24092793
       3228.5273      0.24957617
       3229.5045      0.26921124
       3230.4818      0.29218547
       3231.4590      0.26934457
       3232.4363      0.25741703
       3233.4135      0.24590985
       3234.3908      0.30099708
       3235.3680      0.29801576
       3236.3453      0.28676167
       3237.3225      0.29624470
       3238.2998      0.26717768
       3239.2770      0.32328836
       3240.2542      0.32557433
       3241.2315      0.31414802
       3242.2087      0.27654931
       3243.1860      0.31656331
       3244.1632      0.23561402
       3245.1405      0.23409346
       3246.1177      0.32560195
       3247.0950      0.31051162
       3248.0722      0.34677594
       3249.0495      0.32752661
       3250.0267      0.30210332
       3251.0039      0.31252855
       3251.9812      0.29590897
       3252.9584      0.32114391
       3253.9357      0.32260325
       3254.9129      0.35083837
       3255.8902      0.33836875
       3256.8674      0.33243364
       3257.8447      0.35185276
       3258.8219      0.35848962
       3259.7992      0.40185528
       3260.7764      0.32329778
       3261.7537      0.30185088
       3262.7309      0.31659934
       3263.7081      0.31812025
       3264.6854      0.36583584
       3265.6626      0.36897962
       3266.6399      0.35443520
       3267.6171      0.31383731
       3268.5944      0.35943802
       3269.5716      0.35409040
       3270.5489      0.35112929
       3271.5261      0.34481238
       3272.5034      0.34378486
       3273.4806      0.34752577
       3274.4578      0.35697937
       3275.4351      0.36637804
       3276.4123      0.38443011
       3277.3896      0.38392825
       3278.3668      0.34686263
       3279.3441      0.39243189
       3280.3213      0.33305167
       3281.2986      0.32845093
       3282.2758      0.36891057
       3283.2531      0.41444465
       3284.2303      0.41600497
       3285.2075      0.41789696
       3286.1848      0.40721542
       3287.1620      0.36069464
       3288.1393      0.42350502
       3289.1165      0.41169753
       3290.0938      0.41348233
       3291.0710      0.43644493
       3292.0483      0.37952872
       3293.0255      0.44581315
       3294.0028      0.42742145
       3294.9800      0.43508698
       3295.9572      0.38381026
       3296.9345      0.39332137
       3297.9117      0.36066103
       3298.8890      0.35453872
       3299.8662      0.36866842
       3300.8435      0.34857963
       3301.8207      0.38719232
       3302.7980      0.40926444
       3303.7752      0.36292750
       3304.7525      0.36164529
       3305.7297      0.36422201
       3306.7069      0.34924003
       3307.6842      0.38646110
       3308.6614      0.38044883
       3309.6387      0.36713987
       3310.6159      0.39207471
       3311.5932      0.44444416
       3312.5704      0.41395439
       3313.5477      0.40157950
       3314.5249      0.40093754
       3315.5022      0.38943146
       3316.4794      0.40458911
       3317.4566      0.39375000
       3318.4339      0.37302172
       3319.4111      0.38396104
       3320.3884      0.36669432
       3321.3656      0.40653761
       3322.3429      0.34697764
       3323.3201      0.39092991
       3324.2974      0.40457642
       3325.2746      0.39873355
       3326.2519      0.36341353
       3327.2291      0.42754344
       3328.2063      0.40423109
       3329.1836      0.38684291
       3330.1608      0.36146689
       3331.1381      0.40534866
       3332.1153      0.38116998
       3333.0926      0.38687720
       3334.0698      0.38496495
       3335.0471      0.40400275
       3336.0243      0.36388794
       3337.0016      0.41604688
       3337.9788      0.42354733
       3338.9561      0.39279323
       3339.9333      0.36555417
       3340.9105      0.37785664
       3341.8878      0.42188909
       3342.8650      0.35337800
       3343.8423      0.41419623
       3344.8195      0.46068305
       3345.7968      0.41056422
       3346.7740      0.38337513
       3347.7513      0.36546237
       3348.7285      0.44505926
       3349.7058      0.42872325
       3350.6830      0.43814210
       3351.6602      0.40635441
       3352.6375      0.37375090
       3353.6147      0.38415229
       3354.5920      0.36716046
       3355.5692      0.35874874
       3356.5465      0.38598217
       3357.5237      0.35163901
       3358.5010      0.31658308
       3359.4782      0.39006731
       3360.4555      0.34846910
       3361.4327      0.36350993
       3362.4099      0.32736932
       3363.3872      0.41308813
       3364.3644      0.36363033
       3365.3417      0.33692594
       3366.3189      0.37736932
       3367.2962      0.29368333
       3368.2734      0.35599107
       3369.2507      0.40709332
       3370.2279      0.43331108
       3371.2052      0.38743039
       3372.1824      0.33409465
       3373.1596      0.41815848
       3374.1369      0.42146246
       3375.1141      0.40600413
       3376.0914      0.34930617
       3377.0686      0.43406330
       3378.0459      0.42343769
       3379.0231      0.41451875
       3380.0004      0.45656990
       3380.9776      0.45283032
       3381.9549      0.40710043
       3382.9321      0.43161133
       3383.9093      0.43669612
       3384.8866      0.42469196
       3385.8638      0.45597549
       3386.8411      0.38734573
       3387.8183      0.42669136
       3388.7956      0.35182253
       3389.7728      0.42462586
       3390.7501      0.41794843
       3391.7273      0.45197353
       3392.7046      0.38772550
       3393.6818      0.41145124
       3394.6590      0.45143292
       3395.6363      0.49524629
       3396.6135      0.43025094
       3397.5908      0.49407571
       3398.5680      0.45231043
       3399.5453      0.46150076
       3400.5225      0.45237263
       3401.4998      0.42871619
       3402.4770      0.38025692
       3403.4543      0.41329787
       3404.4315      0.42393440
       3405.4088      0.41491969
       3406.3860      0.42015556
       3407.3632      0.39506372
       3408.3405      0.37990805
       3409.3177      0.41569945
       3410.2950      0.36121135
       3411.2722      0.40106297
       3412.2495      0.42289645
       3413.2267      0.39295622
       3414.2040      0.44343294
       3415.1812      0.47287523
       3416.1585      0.47224824
       3417.1357      0.44337187
       3418.1129      0.45553298
       3419.0902      0.45753966
       3420.0674      0.44978396
       3421.0447      0.43900448
       3422.0219      0.44851572
       3422.9992      0.44491002
       3423.9764      0.42946513
       3424.9537      0.44939216
       3425.9309      0.45101857
       3426.9082      0.51096392
       3427.8854      0.47009044
       3428.8626      0.41834366
       3429.8399      0.44840317
       3430.8171      0.45858197
       3431.7944      0.40315981
       3432.7716      0.43673088
       3433.7489      0.39731489
       3434.7261      0.42094061
       3435.7034      0.37452955
       3436.6806      0.36139575
       3437.6579      0.38133854
       3438.6351      0.34675478
       3439.6123      0.34768447
       3440.5896      0.33603314
       3441.5668      0.36053415
       3442.5441      0.33917748
       3443.5213      0.38652224
       3444.4986      0.40253714
       3445.4758      0.42212087
       3446.4531      0.40668150
       3447.4303      0.43728382
       3448.4076      0.41036037
       3449.3848      0.43401255
       3450.3620      0.45084546
       3451.3393      0.41162571
       3452.3165      0.40220436
       3453.2938      0.45294703
       3454.2710      0.41236187
       3455.2483      0.43576461
       3456.2255      0.41435865
       3457.2028      0.43311914
       3458.1800      0.41425611
       3459.1573      0.43991773
       3460.1345      0.36519583
       3461.1117      0.44974931
       3462.0890      0.44729459
       3463.0662      0.43093132
       3464.0435      0.40421508
       3465.0207      0.43519603
       3465.9980      0.44586319
       3466.9752      0.49567155
       3467.9525      0.41955116
       3468.9297      0.43271090
       3469.9070      0.41866245
       3470.8842      0.40834199
       3471.8614      0.42842437
       3472.8387      0.45386756
       3473.8159      0.41625810
       3474.7932      0.39904228
       3475.7704      0.43289762
       3476.7477      0.44422637
       3477.7249      0.47631754
       3478.7022      0.44799297
       3479.6794      0.41317508
       3480.6567      0.41995778
       3481.6339      0.42937075
       3482.6112      0.43752720
       3483.5884      0.38684250
       3484.5656      0.43898711
       3485.5429      0.39839568
       3486.5201      0.40489033
       3487.4974      0.40736525
       3488.4746      0.43805216
       3489.4519      0.43135248
       3490.4291      0.38021275
       3491.4064      0.39136946
       3492.3836      0.37119272
       3493.3609      0.38858905
       3494.3381      0.38951771
       3495.3153      0.43501583
       3496.2926      0.43478016
       3497.2698      0.45086137
       3498.2471      0.44560292
       3499.2243      0.48734754
       3500.2016      0.46268140
       3501.1788      0.45828780
       3502.1561      0.46547090
       3503.1333      0.45973013
       3504.1106      0.47073438
       3505.0878      0.43639028
       3506.0650      0.43365853
       3507.0423      0.46597186
       3508.0195      0.41813184
       3508.9968      0.39793784
       3509.9740      0.41409713
       3510.9513      0.41901411
       3511.9285      0.39963959
       3512.9058      0.41222273
       3513.8830      0.43129383
       3514.8603      0.43796432
       3515.8375      0.44940638
       3516.8147      0.46057018
       3517.7920      0.44106265
       3518.7692      0.39799319
       3519.7465      0.43826648
       3520.7237      0.44966179
       3521.7010      0.39803465
       3522.6782      0.37081476
       3523.6555      0.39062063
       3524.6327      0.35664801
       3525.6100      0.38301938
       3526.5872      0.39711512
       3527.5644      0.44000191
       3528.5417      0.44996980
       3529.5189      0.50255704
       3530.4962      0.45898883
       3531.4734      0.46990006
       3532.4507      0.46665007
       3533.4279      0.46831133
       3534.4052      0.48339688
       3535.3824      0.48286804
       3536.3597      0.51615255
       3537.3369      0.50469747
       3538.3141      0.47837297
       3539.2914      0.51908513
       3540.2686      0.47650788
       3541.2459      0.49897953
       3542.2231      0.50008622
       3543.2004      0.52839926
       3544.1776      0.49946089
       3545.1549      0.48460418
       3546.1321      0.47421501
       3547.1094      0.52558007
       3548.0866      0.47144918
       3549.0638      0.48841726
       3550.0411      0.47208960
       3551.0183      0.45087608
       3551.9956      0.44034309
       3552.9728      0.46801679
       3553.9501      0.48869032
       3554.9273      0.46063435
       3555.9046      0.47015002
       3556.8818      0.46170857
       3557.8591      0.48509920
       3558.8363      0.46596601
       3559.8136      0.49022982
       3560.7908      0.42785895
       3561.7680      0.44937618
       3562.7453      0.43673493
       3563.7225      0.42629228
       3564.6998      0.42417242
       3565.6770      0.37501261
       3566.6543      0.38891432
       3567.6315      0.39747231
       3568.6088      0.39509208
       3569.5860      0.42296409
       3570.5633      0.39570228
       3571.5405      0.39841740
       3572.5177      0.41844034
       3573.4950      0.45481926
       3574.4722      0.42108002
       3575.4495      0.37761710
       3576.4267      0.41999870
       3577.4040      0.42401222
       3578.3812      0.41447781
       3579.3585      0.39190524
       3580.3357      0.37485700
       3581.3130      0.37308194
       3582.2902      0.38671341
       3583.2674      0.38991393
       3584.2447      0.35778996
       3585.2219      0.37506944
       3586.1992      0.33592001
       3587.1764      0.39341653
       3588.1537      0.38951402
       3589.1309      0.40682896
       3590.1082      0.42467955
       3591.0854      0.48020048
       3592.0627      0.46192525
       3593.0399      0.48543979
       3594.0171      0.50093434
       3594.9944      0.45746325
       3595.9716      0.52192703
       3596.9489      0.48343129
       3597.9261      0.51099753
       3598.9034      0.48099031
       3599.8806      0.43038045
       3600.8579      0.48540296
       3601.8351      0.43382009
       3602.8124      0.44815220
       3603.7896      0.47057184
       3604.7668      0.47771658
       3605.7441      0.45388571
       3606.7213      0.39702372
       3607.6986      0.46497514
       3608.6758      0.45851190
       3609.6531      0.43206601
       3610.6303      0.44176419
       3611.6076      0.47715784
       3612.5848      0.43575491
       3613.5621      0.48936382
       3614.5393      0.49156596
       3615.5165      0.50166458
       3616.4938      0.46674258
       3617.4710      0.42248771
       3618.4483      0.43602638
       3619.4255      0.48149488
       3620.4028      0.50823300
       3621.3800      0.49154905
       3622.3573      0.52776011
       3623.3345      0.51324862
       3624.3118      0.52249249
       3625.2890      0.54903621
       3626.2663      0.60794962
       3627.2435      0.56681595
       3628.2207      0.50864528
       3629.1980      0.49387438
       3630.1752      0.50929033
       3631.1525      0.49822376
       3632.1297      0.48635738
       3633.1070      0.46864479
       3634.0842      0.51327968
       3635.0615      0.49036583
       3636.0387      0.55616446
       3637.0160      0.53589416
       3637.9932      0.55252215
       3638.9704      0.55199653
       3639.9477      0.57907036
       3640.9249      0.57558322
       3641.9022      0.58261813
       3642.8794      0.56956428
       3643.8567      0.53436983
       3644.8339      0.51096833
       3645.8112      0.50572897
       3646.7884      0.50368195
       3647.7657      0.49461921
       3648.7429      0.52391370
       3649.7201      0.50857860
       3650.6974      0.61590299
       3651.6746      0.56306400
       3652.6519      0.59924802
       3653.6291      0.61157569
       3654.6064      0.61541429
       3655.5836      0.63370348
       3656.5609      0.59631593
       3657.5381      0.65481596
       3658.5154      0.66820159
       3659.4926      0.59780979
       3660.4698      0.62131148
       3661.4471      0.64689739
       3662.4243      0.66078852
       3663.4016      0.64841501
       3664.3788      0.60226569
       3665.3561      0.56530768
       3666.3333      0.63359254
       3667.3106      0.62011595
       3668.2878      0.63319286
       3669.2651      0.62492480
       3670.2423      0.64312946
       3671.2195      0.59579872
       3672.1968      0.62379749
       3673.1740      0.66511974
       3674.1513      0.61724212
       3675.1285      0.58634481
       3676.1058      0.61259003
       3677.0830      0.60210429
       3678.0603      0.57946767
       3679.0375      0.58404601
       3680.0148      0.59719571
       3680.9920      0.60960042
       3681.9692      0.55299394
       3682.9465      0.61423499
       3683.9237      0.59917693
       3684.9010      0.58448304
       3685.8782      0.56335137
       3686.8555      0.58590526
       3687.8327      0.60535704
       3688.8100      0.60677960
       3689.7872      0.67985233
       3690.7645      0.59363122
       3691.7417      0.62103639
       3692.7189      0.62465032
       3693.6962      0.64586299
       3694.6734      0.61456495
       3695.6507      0.66556228
       3696.6279      0.70138278
       3697.6052      0.68482817
       3698.5824      0.66811173
       3699.5597      0.65604264
       3700.5369      0.68613369
       3701.5142      0.63888915
       3702.4914      0.58464684
       3703.4687      0.60503299
       3704.4459      0.54690244
       3705.4231      0.58912530
       3706.4004      0.56332211
       3707.3776      0.57756381
       3708.3549      0.55578767
       3709.3321      0.58524551
       3710.3094      0.66695673
       3711.2866      0.64763870
       3712.2639      0.72270954
       3713.2411      0.73824539
       3714.2184      0.74644410
       3715.1956      0.72697652
       3716.1728      0.68655790
       3717.1501      0.67213347
       3718.1273      0.61593989
       3719.1046      0.66813018
       3720.0818      0.65209832
       3721.0591      0.71367782
       3722.0363      0.83148916
       3723.0136       1.0186778
       3723.9908       1.0565425
       3724.9681       1.1498951
       3725.9453       1.2537569
       3726.9225       1.2806358
       3727.8998       1.2052775
       3728.8770       1.0830842
       3729.8543      0.92007619
       3730.8315      0.77891631
       3731.8088      0.64777606
       3732.7860      0.58382965
       3733.7633      0.55517288
       3734.7405      0.58888955
       3735.7178      0.54387405
       3736.6950      0.59541071
       3737.6722      0.59941704
       3738.6495      0.66535209
       3739.6267      0.71429524
       3740.6040      0.74240964
       3741.5812      0.73304633
       3742.5585      0.60436525
       3743.5357      0.68444550
       3744.5130      0.56180019
       3745.4902      0.54687837
       3746.4675      0.54891176
       3747.4447      0.53561193
       3748.4219      0.54444606
       3749.3992      0.58709556
       3750.3764      0.58771722
       3751.3537      0.70098236
       3752.3309      0.73616046
       3753.3082      0.80449143
       3754.2854      0.77092962
       3755.2627      0.81603713
       3756.2399      0.77132827
       3757.2172      0.75695759
       3758.1944      0.78614870
       3759.1716      0.77230499
       3760.1489      0.75209838
       3761.1261      0.74430114
       3762.1034      0.75109870
       3763.0806      0.79876116
       3764.0579      0.74722215
       3765.0351      0.68909031
       3766.0124      0.71766058
       3766.9896      0.70280562
       3767.9669      0.65943055
       3768.9441      0.70762058
       3769.9214      0.71427082
       3770.8986      0.69729633
       3771.8758      0.76041155
       3772.8531      0.81425676
       3773.8303      0.80411042
       3774.8076      0.87659961
       3775.7848      0.85982129
       3776.7621      0.96725380
       3777.7393      0.91262664
       3778.7166      0.96880590
       3779.6938      0.97625758
       3780.6711      0.98478802
       3781.6483       1.0548316
       3782.6255       1.0314275
       3783.6028      0.98902489
       3784.5800      0.92829579
       3785.5573      0.89035125
       3786.5345      0.86089954
       3787.5118      0.84452555
       3788.4890      0.84652840
       3789.4663      0.79674912
       3790.4435      0.85651346
       3791.4208      0.74364649
       3792.3980      0.68303762
       3793.3752      0.71397837
       3794.3525      0.67503977
       3795.3297      0.65246300
       3796.3070      0.63301517
       3797.2842      0.64429186
       3798.2615      0.71202124
       3799.2387      0.75059292
       3800.2160      0.76690332
       3801.1932      0.81702830
       3802.1705      0.88511506
       3803.1477      0.86733438
       3804.1249      0.92115481
       3805.1022      0.96023182
       3806.0794      0.94802228
       3807.0567       1.0380666
       3808.0339       1.0117596
       3809.0112      0.97560665
       3809.9884      0.94122769
       3810.9657      0.99723952
       3811.9429      0.98029342
       3812.9202      0.90590312
       3813.8974      0.89911178
       3814.8746      0.91251320
       3815.8519      0.91567229
       3816.8291      0.85552421
       3817.8064      0.89628584
       3818.7836      0.87179241
       3819.7609      0.85904229
       3820.7381      0.87612876
       3821.7154      0.83557012
       3822.6926      0.79121630
       3823.6699      0.79597765
       3824.6471      0.81415660
       3825.6243      0.71683959
       3826.6016      0.71355863
       3827.5788      0.60294359
       3828.5561      0.65655670
       3829.5333      0.64853722
       3830.5106      0.60365905
       3831.4878      0.57410158
       3832.4651      0.51020449
       3833.4423      0.52426585
       3834.4196      0.55183340
       3835.3968      0.56766070
       3836.3740      0.62375682
       3837.3513      0.64559764
       3838.3285      0.64709159
       3839.3058      0.73001609
       3840.2830      0.76116296
       3841.2603      0.85050224
       3842.2375      0.85924079
       3843.2148      0.91093982
       3844.1920      0.89825315
       3845.1693      0.90325378
       3846.1465      0.96757575
       3847.1238      0.97370410
       3848.1010      0.95893939
       3849.0782      0.99128886
       3850.0555       1.0230475
       3851.0327       1.0644077
       3852.0100       1.0237914
       3852.9872      0.98726817
       3853.9645      0.94642067
       3854.9417      0.94111801
       3855.9190      0.98650724
       3856.8962      0.93245116
       3857.8735      0.99732781
       3858.8507      0.99102749
       3859.8279       1.1116371
       3860.8052       1.0495335
       3861.7824       1.0899736
       3862.7597       1.0849184
       3863.7369       1.1261252
       3864.7142       1.1006231
       3865.6914       1.1092154
       3866.6687       1.0836031
       3867.6459       1.0885974
       3868.6232       1.0491578
       3869.6004       1.1044239
       3870.5776       1.0362406
       3871.5549       1.0060101
       3872.5321       1.0187761
       3873.5094       1.0262235
       3874.4866      0.95027773
       3875.4639      0.98648190
       3876.4411      0.99668742
       3877.4184      0.90759956
       3878.3956      0.87817967
       3879.3729      0.88449486
       3880.3501      0.87898475
       3881.3273      0.81601475
       3882.3046      0.79119272
       3883.2818      0.78130013
       3884.2591      0.77916618
       3885.2363      0.71794071
       3886.2136      0.77186548
       3887.1908      0.74705485
       3888.1681      0.78429367
       3889.1453      0.86632793
       3890.1226      0.88378233
       3891.0998      0.94364953
       3892.0770      0.95613103
       3893.0543      0.96973928
       3894.0315       1.0209654
       3895.0088       1.0208467
       3895.9860       1.0380836
       3896.9633       1.0545840
       3897.9405       1.0783423
       3898.9178       1.0607024
       3899.8950       1.0928406
       3900.8723       1.0884696
       3901.8495       1.0735055
       3902.8267       1.1061952
       3903.8040       1.1607861
       3904.7812       1.1909671
       3905.7585       1.1869541
       3906.7357       1.1674110
       3907.7130       1.2096679
       3908.6902       1.2644479
       3909.6675       1.2041039
       3910.6447       1.2808319
       3911.6220       1.2638693
       3912.5992       1.2034824
       3913.5764       1.2559337
       3914.5537       1.2318052
       3915.5309       1.1512882
       3916.5082       1.1877992
       3917.4854       1.1771903
       3918.4627       1.2107573
       3919.4399       1.2254224
       3920.4172       1.1114900
       3921.3944       1.1225242
       3922.3717       1.1032169
       3923.3489       1.1132677
       3924.3262      0.97104598
       3925.3034      0.86912383
       3926.2806      0.82329854
       3927.2579      0.71370537
       3928.2351      0.64474821
       3929.2124      0.60185177
       3930.1896      0.52886332
       3931.1669      0.58917697
       3932.1441      0.60838319
       3933.1214      0.73690203
       3934.0986      0.83219195
       3935.0759      0.91187016
       3936.0531      0.94012966
       3937.0303      0.96235204
       3938.0076       1.0398406
       3938.9848       1.0270615
       3939.9621       1.0449383
       3940.9393       1.0754365
       3941.9166       1.1707603
       3942.8938       1.1468037
       3943.8711       1.1618500
       3944.8483       1.1945871
       3945.8256       1.2858442
       3946.8028       1.2601934
       3947.7800       1.2927433
       3948.7573       1.2881344
       3949.7345       1.2280161
       3950.7118       1.1715535
       3951.6890       1.2227550
       3952.6663       1.2056146
       3953.6435       1.2261067
       3954.6208       1.1747473
       3955.5980       1.1122259
       3956.5753       1.0867977
       3957.5525       1.0366195
       3958.5297      0.94987870
       3959.5070      0.91163914
       3960.4842      0.77677343
       3961.4615      0.70050769
       3962.4387      0.66538402
       3963.4160      0.62236552
       3964.3932      0.54316224
       3965.3705      0.53324090
       3966.3477      0.53513334
       3967.3250      0.58694967
       3968.3022      0.65063162
       3969.2794      0.75317275
       3970.2567      0.79419406
       3971.2339      0.88290521
       3972.2112       1.0045191
       3973.1884       1.1319247
       3974.1657       1.1430787
       3975.1429       1.2227426
       3976.1202       1.2224508
       3977.0974       1.3375308
       3978.0747       1.3223750
       3979.0519       1.3354293
       3980.0291       1.3627253
       3981.0064       1.3655563
       3981.9836       1.4235861
       3982.9609       1.4420214
       3983.9381       1.3786748
       3984.9154       1.4434992
       3985.8926       1.4915289
       3986.8699       1.5636160
       3987.8471       1.5038231
       3988.8244       1.5079777
       3989.8016       1.4714003
       3990.7789       1.5544030
       3991.7561       1.5284883
       3992.7333       1.4910770
       3993.7106       1.5152655
       3994.6878       1.4944987
       3995.6651       1.5676311
       3996.6423       1.6376363
       3997.6196       1.5669140
       3998.5968       1.5400412
       3999.5741       1.5546658
       4000.5513       1.6212755
       4001.5286       1.5931142
       4002.5058       1.5311668
       4003.4830       1.5318335
       4004.4603       1.6015696
       4005.4375       1.5363471
       4006.4148       1.6169411
       4007.3920       1.5498598
       4008.3693       1.6428221
       4009.3465       1.6673641
       4010.3238       1.7288350
       4011.3010       1.6796222
       4012.2783       1.6563440
       4013.2555       1.6348483
       4014.2327       1.6196117
       4015.2100       1.6843290
       4016.1872       1.6409414
       4017.1645       1.6470321
       4018.1417       1.6410587
       4019.1190       1.6685141
       4020.0962       1.6767134
       4021.0735       1.6925300
       4022.0507       1.7104093
       4023.0280       1.7233821
       4024.0052       1.6635482
       4024.9824       1.5922752
       4025.9597       1.6318901
       4026.9369       1.6188379
       4027.9142       1.4922040
       4028.8914       1.5375513
       4029.8687       1.6202004
       4030.8459       1.6362866
       4031.8232       1.6945658
       4032.8004       1.7007510
       4033.7777       1.7003020
       4034.7549       1.7134855
       4035.7321       1.6255504
       4036.7094       1.6510392
       4037.6866       1.6931511
       4038.6639       1.5520281
       4039.6411       1.6444337
       4040.6184       1.5141612
       4041.5956       1.6868074
       4042.5729       1.5551065
       4043.5501       1.6705264
       4044.5274       1.7646388
       4045.5046       1.6660029
       4046.4818       1.7427122
       4047.4591       1.6074020
       4048.4363       1.5980472
       4049.4136       1.6199676
       4050.3908       1.5640646
       4051.3681       1.6521150
       4052.3453       1.5914812
       4053.3226       1.5941077
       4054.2998       1.5118231
       4055.2771       1.5649717
       4056.2543       1.5654812
       4057.2315       1.6035164
       4058.2088       1.5870238
       4059.1860       1.6288468
       4060.1633       1.5653332
       4061.1405       1.5843507
       4062.1178       1.6443719
       4063.0950       1.6747575
       4064.0723       1.6556756
       4065.0495       1.5980734
       4066.0268       1.6178612
       4067.0040       1.7115687
       4067.9813       1.6325497
       4068.9585       1.5532987
       4069.9357       1.5831907
       4070.9130       1.5933434
       4071.8902       1.5452978
       4072.8675       1.6131134
       4073.8447       1.6316074
       4074.8220       1.6452024
       4075.7992       1.6112317
       4076.7765       1.7198809
       4077.7537       1.6678879
       4078.7310       1.6142888
       4079.7082       1.6809793
       4080.6854       1.6616243
       4081.6627       1.6608139
       4082.6399       1.6757055
       4083.6172       1.6791793
       4084.5944       1.6276130
       4085.5717       1.6334306
       4086.5489       1.6121716
       4087.5262       1.5083985
       4088.5034       1.5876516
       4089.4807       1.4453579
       4090.4579       1.3811028
       4091.4351       1.3492620
       4092.4124       1.2719342
       4093.3896       1.2323343
       4094.3669       1.1938741
       4095.3441       1.2104000
       4096.3214       1.1851579
       4097.2986       1.1976573
       4098.2759       1.2816941
       4099.2531       1.2837928
       4100.2304       1.3459311
       4101.2076       1.4162528
       4102.1848       1.4224958
       4103.1621       1.4448360
       4104.1393       1.4686335
       4105.1166       1.5781408
       4106.0938       1.6564342
       4107.0711       1.5593261
       4108.0483       1.6263153
       4109.0256       1.5948338
       4110.0028       1.6658421
       4110.9801       1.6052561
       4111.9573       1.6672108
       4112.9345       1.6969684
       4113.9118       1.6893177
       4114.8890       1.5866598
       4115.8663       1.6787111
       4116.8435       1.6201527
       4117.8208       1.6420810
       4118.7980       1.6164760
       4119.7753       1.7086161
       4120.7525       1.6756141
       4121.7298       1.6629621
       4122.7070       1.6720226
       4123.6842       1.6444822
       4124.6615       1.7108646
       4125.6387       1.6325662
       4126.6160       1.6499996
       4127.5932       1.6496029
       4128.5705       1.7555429
       4129.5477       1.7421426
       4130.5250       1.8191804
       4131.5022       1.7786777
       4132.4795       1.7426036
       4133.4567       1.8714154
       4134.4340       1.7713625
       4135.4112       1.6704944
       4136.3884       1.6475478
       4137.3657       1.7916451
       4138.3429       1.7032927
       4139.3202       1.7589582
       4140.2974       1.7658451
       4141.2747       1.7057438
       4142.2519       1.6814665
       4143.2292       1.7067612
       4144.2064       1.7700832
       4145.1837       1.7193727
       4146.1609       1.6908716
       4147.1381       1.6545235
       4148.1154       1.6846694
       4149.0926       1.7163869
       4150.0699       1.7250242
       4151.0471       1.7187010
       4152.0244       1.7623152
       4153.0016       1.8236495
       4153.9789       1.8547734
       4154.9561       1.8651249
       4155.9334       1.8046168
       4156.9106       1.8382649
       4157.8878       1.8903585
       4158.8651       1.7845928
       4159.8423       1.7945105
       4160.8196       1.7557756
       4161.7968       1.7196206
       4162.7741       1.7604902
       4163.7513       1.6726144
       4164.7286       1.6475716
       4165.7058       1.6680659
       4166.6831       1.6868254
       4167.6603       1.6801645
       4168.6375       1.6633821
       4169.6148       1.7240126
       4170.5920       1.6296093
       4171.5693       1.6580746
       4172.5465       1.7170719
       4173.5238       1.6799194
       4174.5010       1.6942521
       4175.4783       1.7826858
       4176.4555       1.8735908
       4177.4328       1.7636805
       4178.4100       1.8011754
       4179.3872       1.7648393
       4180.3645       1.7933104
       4181.3417       1.8116785
       4182.3190       1.8152921
       4183.2962       1.8340258
       4184.2735       1.7937352
       4185.2507       1.8145431
       4186.2280       1.8161598
       4187.2052       1.7502075
       4188.1825       1.7981015
       4189.1597       1.7810128
       4190.1369       1.7914908
       4191.1142       1.6942876
       4192.0914       1.8049367
       4193.0687       1.7077014
       4194.0459       1.7530150
       4195.0232       1.8155201
       4196.0004       1.8318927
       4196.9777       1.8284258
       4197.9549       1.9076090
       4198.9322       1.8605172
       4199.9094       1.8829641
       4200.8866       1.8758284
       4201.8639       1.9128222
       4202.8411       1.9100794
       4203.8184       1.8414417
       4204.7956       1.8551611
       4205.7729       1.9172407
       4206.7501       1.9796836
       4207.7274       1.8928307
       4208.7046       1.9250845
       4209.6819       1.8836992
       4210.6591       1.9682674
       4211.6364       2.0070182
       4212.6136       1.9153280
       4213.5908       1.9047712
       4214.5681       1.7419549
       4215.5453       1.7819611
       4216.5226       1.6691326
       4217.4998       1.7154081
       4218.4771       1.6734495
       4219.4543       1.7699063
       4220.4316       1.8832765
       4221.4088       1.8380707
       4222.3861       1.8178845
       4223.3633       1.9204462
       4224.3405       1.9026788
       4225.3178       1.9067365
       4226.2950       1.8081179
       4227.2723       1.8963289
       4228.2495       1.8538152
       4229.2268       2.0011079
       4230.2040       2.0102733
       4231.1813       1.9276371
       4232.1585       1.9961585
       4233.1358       2.0187611
       4234.1130       2.0247725
       4235.0902       2.0757326
       4236.0675       2.0195122
       4237.0447       1.9439547
       4238.0220       2.0389402
       4238.9992       1.9131363
       4239.9765       1.9244301
       4240.9537       1.9141073
       4241.9310       1.8678836
       4242.9082       1.8884779
       4243.8855       1.9138394
       4244.8627       1.9042958
       4245.8399       2.0069654
       4246.8172       1.9542733
       4247.7944       1.9316316
       4248.7717       1.9663417
       4249.7489       1.9070594
       4250.7262       1.9707319
       4251.7034       2.0290264
       4252.6807       2.0395307
       4253.6579       2.0633887
       4254.6352       2.0799404
       4255.6124       2.1322048
       4256.5896       2.1238115
       4257.5669       2.0801686
       4258.5441       1.9576351
       4259.5214       1.9112028
       4260.4986       1.8672116
       4261.4759       1.8176477
       4262.4531       1.7993745
       4263.4304       1.8691697
       4264.4076       1.7765838
       4265.3849       1.8846501
       4266.3621       1.9428037
       4267.3393       1.9487139
       4268.3166       2.0701441
       4269.2938       1.9900722
       4270.2711       2.0152020
       4271.2483       2.0363139
       4272.2256       2.0037925
       4273.2028       2.1308436
       4274.1801       1.9588642
       4275.1573       1.9520431
       4276.1346       1.9565445
       4277.1118       1.8256319
       4278.0890       1.8878677
       4279.0663       1.8757816
       4280.0435       1.7939143
       4281.0208       1.8384686
       4281.9980       1.8575846
       4282.9753       1.9179902
       4283.9525       1.8548169
       4284.9298       1.8344217
       4285.9070       1.8463657
       4286.8843       1.8329565
       4287.8615       1.6200464
       4288.8388       1.6979864
       4289.8160       1.6830132
       4290.7932       1.5973906
       4291.7705       1.6040039
       4292.7477       1.6575515
       4293.7250       1.6432323
       4294.7022       1.6184535
       4295.6795       1.6419447
       4296.6567       1.6171767
       4297.6340       1.5969825
       4298.6112       1.6717413
       4299.5885       1.6894389
       4300.5657       1.7822945
       4301.5429       1.7912492
       4302.5202       1.9127021
       4303.4974       1.9980197
       4304.4747       2.0397386
       4305.4519       2.1036824
       4306.4292       2.1931761
       4307.4064       2.1246386
       4308.3837       2.1494235
       4309.3609       2.1150439
       4310.3382       2.0279482
       4311.3154       1.9671054
       4312.2926       1.9334271
       4313.2699       1.8364490
       4314.2471       1.8989080
       4315.2244       1.8599059
       4316.2016       1.9895700
       4317.1789       1.9266356
       4318.1561       2.0800827
       4319.1334       2.0414596
       4320.1106       2.1024227
       4321.0879       2.1032712
       4322.0651       2.0179332
       4323.0423       2.0227360
       4324.0196       1.8888583
       4324.9968       1.8150078
       4325.9741       1.6355849
       4326.9513       1.6422599
       4327.9286       1.6009869
       4328.9058       1.6827080
       4329.8831       1.6408475
       4330.8603       1.7065602
       4331.8376       1.6905646
       4332.8148       1.8067306
       4333.7920       1.8413625
       4334.7693       1.9268072
       4335.7465       2.0272958
       4336.7238       2.0427800
       4337.7010       1.9946697
       4338.6783       2.0508399
       4339.6555       2.0407444
       4340.6328       1.9029202
       4341.6100       2.1141763
       4342.5873       1.9979880
       4343.5645       2.0704547
       4344.5417       2.1113767
       4345.5190       2.1337561
       4346.4962       2.2147093
       4347.4735       2.2401313
       4348.4507       2.2731902
       4349.4280       2.3128464
       4350.4052       2.2992859
       4351.3825       2.3472081
       4352.3597       2.3418931
       4353.3370       2.2539172
       4354.3142       2.3507927
       4355.2915       2.2457900
       4356.2687       2.2443907
       4357.2459       2.1808051
       4358.2232       2.1750738
       4359.2004       2.2178542
       4360.1777       2.2208838
       4361.1549       2.2359357
       4362.1322       2.1469226
       4363.1094       2.2026567
       4364.0867       2.2156391
       4365.0639       2.2617420
       4366.0412       2.1982308
       4367.0184       2.1376749
       4367.9956       2.0912133
       4368.9729       2.0388111
       4369.9501       2.0082599
       4370.9274       1.9314752
       4371.9046       1.8292476
       4372.8819       1.9002439
       4373.8591       2.0404478
       4374.8364       2.0639339
       4375.8136       1.9759233
       4376.7909       2.0426243
       4377.7681       2.1252494
       4378.7453       2.1520260
       4379.7226       2.0309293
       4380.6998       2.0828948
       4381.6771       2.2937220
       4382.6543       2.2493725
       4383.6316       2.2199848
       4384.6088       2.3122641
       4385.5861       2.2026739
       4386.5633       2.2940267
       4387.5406       2.2318082
       4388.5178       2.1905105
       4389.4950       2.1710309
       4390.4723       2.1001427
       4391.4495       2.1586521
       4392.4268       2.0628382
       4393.4040       2.1470960
       4394.3813       2.1827516
       4395.3585       2.1749866
       4396.3358       2.3214104
       4397.3130       2.3788276
       4398.2903       2.3796483
       4399.2675       2.4479491
       4400.2447       2.3723211
       4401.2220       2.2585549
       4402.1992       2.2281265
       4403.1765       2.2313746
       4404.1537       2.2466514
       4405.1310       2.2836179
       4406.1082       2.3079814
       4407.0855       2.3565846
       4408.0627       2.2837400
       4409.0400       2.3199791
       4410.0172       2.3319640
       4410.9944       2.3297899
       4411.9717       2.3472309
       4412.9489       2.4161925
       4413.9262       2.3468552
       4414.9034       2.2772143
       4415.8807       2.3483126
       4416.8579       2.3418147
       4417.8352       2.3504882
       4418.8124       2.1618025
       4419.7897       2.3292947
       4420.7669       2.3053592
       4421.7441       2.2487432
       4422.7214       2.3792302
       4423.6986       2.3718937
       4424.6759       2.3882007
       4425.6531       2.4510174
       4426.6304       2.3547017
       4427.6076       2.3807150
       4428.5849       2.3326548
       4429.5621       2.4140925
       4430.5394       2.3983238
       4431.5166       2.4819103
       4432.4939       2.4770765
       4433.4711       2.4506468
       4434.4483       2.5468849
       4435.4256       2.4019383
       4436.4028       2.3675095
       4437.3801       2.4438299
       4438.3573       2.4664594
       4439.3346       2.3517485
       4440.3118       2.2988882
       4441.2891       2.3018758
       4442.2663       2.2317731
       4443.2436       2.1410017
       4444.2208       2.1887777
       4445.1980       2.2679296
       4446.1753       2.2744845
       4447.1525       2.2280731
       4448.1298       2.2329190
       4449.1070       2.2685067
       4450.0843       2.3406192
       4451.0615       2.3358124
       4452.0388       2.3853305
       4453.0160       2.4241884
       4453.9933       2.2639985
       4454.9705       2.5393270
       4455.9477       2.4088827
       4456.9250       2.5359804
       4457.9022       2.5322176
       4458.8795       2.6000397
       4459.8567       2.7784443
       4460.8340       2.6101245
       4461.8112       2.5617506
       4462.7885       2.5889319
       4463.7657       2.5634174
       4464.7430       2.5793454
       4465.7202       2.5113960
       4466.6974       2.3731892
       4467.6747       2.3793295
       4468.6519       2.5101435
       4469.6292       2.4739514
       4470.6064       2.5041053
       4471.5837       2.5434624
       4472.5609       2.4737620
       4473.5382       2.6244711
       4474.5154       2.5202871
       4475.4927       2.4025248
       4476.4699       2.4885434
       4477.4471       2.5971564
       4478.4244       2.5496963
       4479.4016       2.4328772
       4480.3789       2.5454938
       4481.3561       2.5595331
       4482.3334       2.5498426
       4483.3106       2.5360015
       4484.2879       2.6290314
       4485.2651       2.5272299
       4486.2424       2.7392276
       4487.2196       2.7292292
       4488.1968       2.8106374
       4489.1741       2.7137654
       4490.1513       2.7931394
       4491.1286       2.7318624
       4492.1058       2.7989982
       4493.0831       2.7475049
       4494.0603       2.6841470
       4495.0376       2.7107649
       4496.0148       2.5870205
       4496.9921       2.6914878
       4497.9693       2.6763067
       4498.9466       2.6497327
       4499.9238       2.7114190
       4500.9010       2.6579623
       4501.8783       2.7262934
       4502.8555       2.6260774
       4503.8328       2.6323061
       4504.8100       2.5928579
       4505.7873       2.5987495
       4506.7645       2.6103314
       4507.7418       2.5264234
       4508.7190       2.5286709
       4509.6963       2.4374155
       4510.6735       2.4543998
       4511.6507       2.4110771
       4512.6280       2.3584076
       4513.6052       2.3564455
       4514.5825       2.4313879
       4515.5597       2.3574504
       4516.5370       2.3824935
       4517.5142       2.6079683
       4518.4915       2.6003281
       4519.4687       2.4874926
       4520.4460       2.6153738
       4521.4232       2.6245919
       4522.4004       2.5719362
       4523.3777       2.6266153
       4524.3549       2.5848475
       4525.3322       2.5633641
       4526.3094       2.7473010
       4527.2867       2.5686569
       4528.2639       2.5121781
       4529.2412       2.6066538
       4530.2184       2.5981695
       4531.1957       2.5504340
       4532.1729       2.5252145
       4533.1501       2.5841220
       4534.1274       2.4758448
       4535.1046       2.5011556
       4536.0819       2.5661865
       4537.0591       2.5827626
       4538.0364       2.5794525
       4539.0136       2.5881035
       4539.9909       2.6907938
       4540.9681       2.8374059
       4541.9454       2.8123426
       4542.9226       2.6593751
       4543.8998       2.7732183
       4544.8771       2.6864388
       4545.8543       2.6910371
       4546.8316       2.6400719
       4547.8088       2.7139700
       4548.7861       2.6710652
       4549.7633       2.7928787
       4550.7406       2.6808532
       4551.7178       2.7949484
       4552.6951       2.8169748
       4553.6723       2.7390996
       4554.6495       2.7887414
       4555.6268       2.7251611
       4556.6040       2.7410602
       4557.5813       2.7711543
       4558.5585       2.7822706
       4559.5358       2.7397553
       4560.5130       2.7178848
       4561.4903       2.6652843
       4562.4675       2.6403132
       4563.4448       2.6120415
       4564.4220       2.4763823
       4565.3992       2.6046642
       4566.3765       2.6198820
       4567.3537       2.5770547
       4568.3310       2.5903106
       4569.3082       2.8118676
       4570.2855       2.7224627
       4571.2627       2.6503078
       4572.2400       2.6498211
       4573.2172       2.6722951
       4574.1945       2.7821629
       4575.1717       2.6210549
       4576.1490       2.7422256
       4577.1262       2.7621779
       4578.1034       2.6486824
       4579.0807       2.6992194
       4580.0579       2.6288827
       4581.0352       2.7603667
       4582.0124       2.6819189
       4582.9897       2.7698570
       4583.9669       2.7176765
       4584.9442       2.7085018
       4585.9214       2.7670896
       4586.8987       2.8713504
       4587.8759       2.7773396
       4588.8531       2.8526772
       4589.8304       2.9395601
       4590.8076       2.8970769
       4591.7849       2.8806631
       4592.7621       2.8660614
       4593.7394       2.9016467
       4594.7166       2.8173891
       4595.6939       2.9199644
       4596.6711       2.8909785
       4597.6484       2.8302497
       4598.6256       2.8606303
       4599.6028       2.8956410
       4600.5801       2.7910221
       4601.5573       2.8152043
       4602.5346       2.8971096
       4603.5118       2.8770844
       4604.4891       2.9134975
       4605.4663       2.9646356
       4606.4436       2.9555513
       4607.4208       2.8943386
       4608.3981       2.8561292
       4609.3753       2.9301932
       4610.3525       2.8448510
       4611.3298       2.8388467
       4612.3070       2.8338852
       4613.2843       2.8276669
       4614.2615       2.8786646
       4615.2388       2.7918326
       4616.2160       2.7624621
       4617.1933       2.8109194
       4618.1705       2.7839734
       4619.1478       2.6900926
       4620.1250       2.7704056
       4621.1022       2.7629878
       4622.0795       2.6686531
       4623.0567       2.7794000
       4624.0340       2.6712561
       4625.0112       2.6485423
       4625.9885       2.6777568
       4626.9657       2.6260617
       4627.9430       2.6560762
       4628.9202       2.7036518
       4629.8975       2.7971545
       4630.8747       2.7337561
       4631.8519       2.8211442
       4632.8292       2.6907543
       4633.8064       2.8666205
       4634.7837       2.8389759
       4635.7609       2.8076285
       4636.7382       2.8387240
       4637.7154       2.8214967
       4638.6927       2.8712201
       4639.6699       2.9086290
       4640.6472       2.8641047
       4641.6244       2.7650378
       4642.6016       2.7915966
       4643.5789       2.6568092
       4644.5561       2.5465558
       4645.5334       2.5316179
       4646.5106       2.5573561
       4647.4879       2.5986850
       4648.4651       2.5089137
       4649.4424       2.6593756
       4650.4196       2.7117848
       4651.3969       2.8151445
       4652.3741       2.7816619
       4653.3514       2.8270375
       4654.3286       2.8438264
       4655.3058       2.8413399
       4656.2831       2.7530949
       4657.2603       2.7529121
       4658.2376       2.8415036
       4659.2148       2.7485115
       4660.1921       2.7723857
       4661.1693       2.7874998
       4662.1466       2.7033110
       4663.1238       2.8575376
       4664.1011       2.8181794
       4665.0783       2.8358854
       4666.0555       2.8482560
       4667.0328       2.8676156
       4668.0100       2.8149798
       4668.9873       2.7441107
       4669.9645       2.8244732
       4670.9418       2.7689600
       4671.9190       2.8243562
       4672.8963       2.7202634
       4673.8735       2.8067670
       4674.8508       2.8264889
       4675.8280       2.7906939
       4676.8052       2.7121683
       4677.7825       2.6923631
       4678.7597       2.6310765
       4679.7370       2.6048038
       4680.7142       2.7145268
       4681.6915       2.6312616
       4682.6687       2.6511428
       4683.6460       2.5959226
       4684.6232       2.6415958
       4685.6005       2.7140147
       4686.5777       2.8012544
       4687.5549       2.8035718
       4688.5322       2.7421361
       4689.5094       2.7428482
       4690.4867       2.8115389
       4691.4639       2.8581169
       4692.4412       2.8478205
       4693.4184       2.8487368
       4694.3957       2.8869803
       4695.3729       2.8824965
       4696.3502       3.0207721
       4697.3274       2.9253830
       4698.3046       2.9881030
       4699.2819       2.9626543
       4700.2591       2.8689214
       4701.2364       2.8594539
       4702.2136       2.9133525
       4703.1909       2.8826207
       4704.1681       2.8307849
       4705.1454       2.8583031
       4706.1226       2.7475664
       4707.0999       2.6893983
       4708.0771       2.6509002
       4709.0543       2.6973952
       4710.0316       2.7173997
       4711.0088       2.8435539
       4711.9861       2.8158429
       4712.9633       2.9466133
       4713.9406       2.9582744
       4714.9178       2.9104074
       4715.8951       3.0201859
       4716.8723       2.9214314
       4717.8496       2.9224514
       4718.8268       2.9240504
       4719.8041       2.8656476
       4720.7813       2.9257185
       4721.7585       2.9323111
       4722.7358       2.9393110
       4723.7130       2.9335757
       4724.6903       2.9200564
       4725.6675       2.9234672
       4726.6448       2.9261870
       4727.6220       2.9228229
       4728.5993       2.9461536
       4729.5765       2.8121796
       4730.5538       2.8557396
       4731.5310       2.8929484
       4732.5082       2.8311435
       4733.4855       2.8623200
       4734.4627       2.8790126
       4735.4400       2.8286778
       4736.4172       2.7528899
       4737.3945       2.7652138
       4738.3717       2.7366512
       4739.3490       2.7611797
       4740.3262       2.6670672
       4741.3035       2.7515503
       4742.2807       2.7872088
       4743.2579       2.7505749
       4744.2352       2.7717716
       4745.2124       2.8056493
       4746.1897       2.8685979
       4747.1669       2.8921050
       4748.1442       2.9041109
       4749.1214       2.8623737
       4750.0987       2.8361025
       4751.0759       2.9375975
       4752.0532       2.9262886
       4753.0304       2.9795293
       4754.0076       2.9471845
       4754.9849       2.9345296
       4755.9621       2.8497644
       4756.9394       2.8823198
       4757.9166       2.8553860
       4758.8939       2.8112445
       4759.8711       2.8006039
       4760.8484       2.7681712
       4761.8256       2.8003646
       4762.8029       2.8325515
       4763.7801       2.8669356
       4764.7573       2.8687123
       4765.7346       2.8806616
       4766.7118       2.9271941
       4767.6891       3.0470073
       4768.6663       2.9292125
       4769.6436       3.0441044
       4770.6208       3.0591625
       4771.5981       2.9693805
       4772.5753       2.9915353
       4773.5526       2.9940636
       4774.5298       2.9885451
       4775.5070       2.8757091
       4776.4843       2.9317901
       4777.4615       3.0567240
       4778.4388       2.9404972
       4779.4160       2.9783663
       4780.3933       3.0449639
       4781.3705       2.8719985
       4782.3478       2.8449266
       4783.3250       2.8796520
       4784.3023       2.9154548
       4785.2795       2.8237178
       4786.2567       2.7715639
       4787.2340       2.8537095
       4788.2112       3.0062162
       4789.1885       2.8557251
       4790.1657       2.9415444
       4791.1430       3.0065197
       4792.1202       2.8301469
       4793.0975       2.9366317
       4794.0747       2.9249931
       4795.0520       2.9141137
       4796.0292       3.0250791
       4797.0065       2.9316197
       4797.9837       2.7932513
       4798.9609       2.8619998
       4799.9382       2.8250735
       4800.9154       2.9171551
       4801.8927       2.7954208
       4802.8699       2.8445176
       4803.8472       2.7539452
       4804.8244       2.8420650
       4805.8017       2.9238205
       4806.7789       2.8493868
       4807.7562       2.8657285
       4808.7334       2.8602769
       4809.7106       2.9162893
       4810.6879       2.9415808
       4811.6651       2.9142977
       4812.6424       2.8177435
       4813.6196       2.7721174
       4814.5969       2.7469915
       4815.5741       2.8897754
       4816.5514       2.8556197
       4817.5286       2.8244647
       4818.5059       2.7916281
       4819.4831       2.8644358
       4820.4603       2.8775205
       4821.4376       2.6317693
       4822.4148       2.7544281
       4823.3921       2.6584129
       4824.3693       2.6691176
       4825.3466       2.6975386
       4826.3238       2.6600490
       4827.3011       2.4817759
       4828.2783       2.3550204
       4829.2556       2.4426161
       4830.2328       2.4169370
       4831.2100       2.3781229
       4832.1873       2.3874111
       4833.1645       2.2807934
       4834.1418       2.4151706
       4835.1190       2.4183150
       4836.0963       2.3944499
       4837.0735       2.4943204
       4838.0508       2.4454014
       4839.0280       2.5450416
       4840.0053       2.5135391
       4840.9825       2.4047940
       4841.9597       2.4866406
       4842.9370       2.5798519
       4843.9142       2.4518839
       4844.8915       2.4886357
       4845.8687       2.5928826
       4846.8460       2.5820480
       4847.8232       2.6396856
       4848.8005       2.7819432
       4849.7777       2.7599079
       4850.7550       2.8286906
       4851.7322       2.8711998
       4852.7094       2.9162692
       4853.6867       2.8281226
       4854.6639       2.8759215
       4855.6412       2.8680414
       4856.6184       2.6538763
       4857.5957       2.7399402
       4858.5729       2.6765034
       4859.5502       2.6744565
       4860.5274       2.6826590
       4861.5047       2.7450209
       4862.4819       2.7745709
       4863.4592       2.8194569
       4864.4364       2.9525639
       4865.4136       2.9069643
       4866.3909       2.9046190
       4867.3681       2.9706108
       4868.3454       3.0756427
       4869.3226       3.0282417
       4870.2999       3.0165556
       4871.2771       3.1007757
       4872.2544       3.0188011
       4873.2316       2.9618343
       4874.2089       3.0309833
       4875.1861       3.0384553
       4876.1633       2.9977112
       4877.1406       3.0175843
       4878.1178       2.9789421
       4879.0951       2.9863112
       4880.0723       2.9120586
       4881.0496       3.0198236
       4882.0268       2.9006676
       4883.0041       2.9920828
       4883.9813       3.1136084
       4884.9586       3.0350872
       4885.9358       2.9704802
       4886.9130       2.8983563
       4887.8903       2.9256627
       4888.8675       2.8855655
       4889.8448       2.8449436
       4890.8220       2.7288221
       4891.7993       2.7404778
       4892.7765       2.7046350
       4893.7538       2.7784645
       4894.7310       2.7415724
       4895.7083       2.8755112
       4896.6855       3.0291490
       4897.6627       3.0124148
       4898.6400       3.1225606
       4899.6172       3.0325175
       4900.5945       3.0338008
       4901.5717       3.0541196
       4902.5490       3.0778558
       4903.5262       3.0977485
       4904.5035       3.0551556
       4905.4807       2.9648468
       4906.4580       3.0382711
       4907.4352       2.9687769
       4908.4124       2.8976498
       4909.3897       2.8667150
       4910.3669       2.9410212
       4911.3442       2.9563209
       4912.3214       2.9059391
       4913.2987       3.0334331
       4914.2759       3.0032721
       4915.2532       3.1968101
       4916.2304       3.2137675
       4917.2077       3.1049393
       4918.1849       3.2199727
       4919.1621       3.3697269
       4920.1394       3.2514231
       4921.1166       3.1760589
       4922.0939       3.2041231
       4923.0711       3.1369246
       4924.0484       3.1492281
       4925.0256       3.0735365
       4926.0029       3.1285049
       4926.9801       3.0450925
       4927.9574       3.0683149
       4928.9346       3.1042275
       4929.9118       3.1778026
       4930.8891       3.0700028
       4931.8663       3.1126085
       4932.8436       2.9746161
       4933.8208       2.9514839
       4934.7981       3.0110380
       4935.7753       2.9662699
       4936.7526       2.8986770
       4937.7298       2.9639827
       4938.7071       2.9523210
       4939.6843       2.9752798
       5453.9940       12.089023
       5455.0733       11.914438
       5456.1526       10.482635
       5457.2319       9.1697205
       5458.3111       8.5120515
       5459.3904       8.4273345
       5460.4697       8.3605079
       5461.5490       7.9729578
       5462.6283       8.1435754
       5463.7076       8.0600808
       5464.7869       8.0052965
       5465.8662       8.5464460
       5466.9454       9.3795743
       5468.0247       8.9031104
       5469.1040       9.3376252
       5470.1833       8.9317068
       5471.2626       8.7311185
       5472.3419       9.1825947
       5473.4212       8.9089374
       5474.5005       8.9490191
       5475.5797       8.5902633
       5476.6590       8.8756562
       5477.7383       8.7587989
       5478.8176       8.8628280
       5479.8969       8.9239900
       5480.9762       9.0751339
       5482.0555       9.1841373
       5483.1348       9.0951395
       5484.2140       9.2621429
       5485.2933       9.8829301
       5486.3726       9.3280168
       5487.4519       9.8043805
       5488.5312       9.5959996
       5489.6105       10.256978
       5490.6898       10.099107
       5491.7691       10.217051
       5492.8484       10.112007
       5493.9276       9.8323762
       5495.0069       10.283145
       5496.0862       10.468866
       5497.1655       10.482442
       5498.2448       10.481342
       5499.3241       10.770345
       5500.4034       10.232099
       5501.4827       10.601593
       5502.5619       10.486426
       5503.6412       10.282800
       5504.7205       10.159730
       5505.7998       10.773574
       5506.8791       10.637402
       5507.9584       10.276231
       5509.0377       10.317061
       5510.1170       10.297208
       5511.1962       10.519438
       5512.2755       10.254823
       5513.3548       10.118361
       5514.4341       10.479117
       5515.5134       10.446573
       5516.5927       10.399563
       5517.6720       10.338673
       5518.7513       10.554696
       5519.8305       10.395509
       5520.9098       10.202347
       5521.9891       10.227654
       5523.0684       10.210380
       5524.1477       9.9692202
       5525.2270       10.350381
       5526.3063       10.297074
       5527.3856       10.010276
       5528.4649       10.526733
       5529.5441       10.689574
       5530.6234       10.606529
       5531.7027       10.648319
       5532.7820       10.704363
       5533.8613       10.131770
       5534.9406       10.483625
       5536.0199       10.232540
       5537.0992       10.099490
       5538.1784       9.8462365
       5539.2577       10.074968
       5540.3370       9.9120401
       5541.4163       9.5044624
       5542.4956       9.9647314
       5543.5749       10.116598
       5544.6542       10.253605
       5545.7335       10.060001
       5546.8127       10.146124
       5547.8920       10.187876
       5548.9713       10.778472
       5550.0506       10.542231
       5551.1299       10.797698
       5552.2092       10.663753
       5553.2885       10.370626
       5554.3678       10.181895
       5555.4470       10.721097
       5556.5263       10.755232
       5557.6056       11.091199
       5558.6849       10.696061
       5559.7642       11.100801
       5560.8435       10.942394
       5561.9228       11.226483
       5563.0021       11.303026
       5564.0814       11.240482
       5565.1606       11.139554
       5566.2399       10.789341
       5567.3192       10.987171
       5568.3985       10.801566
       5569.4778       10.577229
       5570.5571       10.683600
       5571.6364       10.628587
       5572.7157       10.372820
       5573.7949       10.703031
       5574.8742       10.368060
       5575.9535       10.606239
       5577.0328       10.802549
       5578.1121       10.947287
       5579.1914       10.673696
       5580.2707       10.446234
       5581.3500       11.074731
       5582.4292       11.507793
       5583.5085       11.243224
       5584.5878       11.090843
       5585.6671       10.860329
       5586.7464       11.115770
       5587.8257       10.984517
       5588.9050       11.181364
       5589.9843       10.521289
       5591.0635       10.792358
       5592.1428       10.838539
       5593.2221       11.083473
       5594.3014       10.973014
       5595.3807       10.931023
       5596.4600       10.850725
       5597.5393       11.186921
       5598.6186       10.881627
       5599.6979       11.154011
       5600.7771       11.641514
       5601.8564       11.071606
       5602.9357       10.853106
       5604.0150       11.030976
       5605.0943       11.220593
       5606.1736       11.391684
       5607.2529       10.878277
       5608.3322       10.891944
       5609.4114       11.296413
       5610.4907       11.385221
       5611.5700       11.082030
       5612.6493       11.260342
       5613.7286       11.167158
       5614.8079       11.200495
       5615.8872       10.800233
       5616.9665       11.176625
       5618.0457       11.051727
       5619.1250       10.802437
       5620.2043       10.416178
       5621.2836       11.164605
       5622.3629       11.463224
       5623.4422       10.975462
       5624.5215       10.741350
       5625.6008       11.191856
       5626.6800       11.121465
       5627.7593       11.233811
       5628.8386       11.214991
       5629.9179       11.826409
       5630.9972       12.095457
       5632.0765       11.469884
       5633.1558       11.611560
       5634.2351       11.492991
       5635.3144       11.275970
       5636.3936       10.509331
       5637.4729       10.617757
       5638.5522       10.995593
       5639.6315       10.833049
       5640.7108       10.414218
       5641.7901       10.554523
       5642.8694       10.291600
       5643.9487       11.246030
       5645.0279       10.908033
       5646.1072       11.371411
       5647.1865       10.890943
       5648.2658       11.094429
       5649.3451       11.339912
       5650.4244       11.490648
       5651.5037       11.966468
       5652.5830       11.533333
       5653.6622       10.834719
       5654.7415       11.008867
       5655.8208       11.042202
       5656.9001       10.929878
       5657.9794       11.162033
       5659.0587       10.343283
       5660.1380       11.358575
       5661.2173       11.573474
       5662.2965       10.365406
       5663.3758       10.415155
       5664.4551       10.089865
       5665.5344       10.486000
       5666.6137       11.066102
       5667.6930       10.954621
       5668.7723       10.982174
       5669.8516       10.754574
       5670.9308       11.022396
       5672.0101       11.203064
       5673.0894       11.797848
       5674.1687       11.579527
       5675.2480       11.817369
       5676.3273       11.898832
       5677.4066       11.603378
       5678.4859       11.567670
       5679.5652       11.715608
       5680.6444       11.823817
       5681.7237       11.784519
       5682.8030       11.599800
       5683.8823       11.842022
       5684.9616       12.054118
       5686.0409       11.875650
       5687.1202       11.619992
       5688.1995       11.896005
       5689.2787       11.539190
       5690.3580       11.657052
       5691.4373       11.973090
       5692.5166       11.501583
       5693.5959       11.798560
       5694.6752       11.879680
       5695.7545       11.433687
       5696.8338       11.823534
       5697.9130       11.726977
       5698.9923       11.296436
       5700.0716       11.911069
       5701.1509       11.814251
       5702.2302       12.094993
       5703.3095       12.306975
       5704.3888       11.559797
       5705.4681       11.662570
       5706.5473       11.385131
       5707.6266       11.744350
       5708.7059       11.722467
       5709.7852       11.703868
       5710.8645       11.686804
       5711.9438       12.060677
       5713.0231       12.235421
       5714.1024       12.255315
       5715.1817       12.361436
       5716.2609       11.538210
       5717.3402       11.956126
       5718.4195       12.275406
       5719.4988       11.484488
       5720.5781       11.247142
       5721.6574       11.058522
       5722.7367       11.361212
       5723.8160       11.381879
       5724.8952       11.670796
       5725.9745       11.639190
       5727.0538       11.717947
       5728.1331       11.813574
       5729.2124       11.504671
       5730.2917       11.793395
       5731.3710       11.631844
       5732.4503       11.563378
       5733.5295       12.020559
       5734.6088       11.932433
       5735.6881       11.713783
       5736.7674       11.517260
       5737.8467       11.305985
       5738.9260       11.705260
       5740.0053       11.285713
       5741.0846       10.806552
       5742.1638       10.711110
       5743.2431       10.588187
       5744.3224       10.614872
       5745.4017       11.192833
       5746.4810       11.000419
       5747.5603       11.192100
       5748.6396       11.038369
       5749.7189       11.082422
       5750.7982       11.901752
       5751.8774       11.591883
       5752.9567       11.068674
       5754.0360       11.232414
       5755.1153       11.555688
       5756.1946       11.347222
       5757.2739       11.683407
       5758.3532       11.751438
       5759.4325       11.817862
       5760.5117       12.046748
       5761.5910       11.787025
       5762.6703       11.482144
       5763.7496       11.422703
       5764.8289       11.745988
       5765.9082       11.932186
       5766.9875       12.008490
       5768.0668       11.822626
       5769.1460       11.769223
       5770.2253       11.696226
       5771.3046       11.774413
       5772.3839       11.705064
       5773.4632       11.730919
       5774.5425       12.083220
       5775.6218       11.920331
       5776.7011       12.204947
       5777.7803       12.248481
       5778.8596       12.400388
       5779.9389       13.024966
       5781.0182       12.246046
       5782.0975       12.671315
       5783.1768       12.288207
       5784.2561       12.659410
       5785.3354       12.305374
       5786.4147       11.846463
       5787.4939       11.697262
       5788.5732       12.368508
       5789.6525       12.356705
       5790.7318       12.042785
       5791.8111       12.088257
       5792.8904       12.081244
       5793.9697       12.018593
       5795.0490       11.861971
       5796.1282       12.234206
       5797.2075       11.984246
       5798.2868       11.773760
       5799.3661       12.161804
       5800.4454       12.167448
       5801.5247       12.157756
       5802.6040       12.370994
       5803.6833       12.221980
       5804.7625       12.151633
       5805.8418       12.021092
       5806.9211       12.454808
       5808.0004       12.336575
       5809.0797       12.254231
       5810.1590       12.202408
       5811.2383       12.174679
       5812.3176       12.028701
       5813.3968       11.236542
       5814.4761       11.752236
       5815.5554       12.045008
       5816.6347       11.530865
       5817.7140       11.685697
       5818.7933       11.979258
       5819.8726       11.374608
       5820.9519       11.303916
       5822.0312       11.304225
       5823.1104       11.602045
       5824.1897       11.706149
       5825.2690       11.275769
       5826.3483       11.710549
       5827.4276       11.556700
       5828.5069       11.211633
       5829.5862       11.798954
       5830.6655       11.867538
       5831.7447       11.760332
       5832.8240       11.387089
       5833.9033       11.642282
       5834.9826       12.016044
       5836.0619       11.825976
       5837.1412       11.800381
       5838.2205       11.633345
       5839.2998       11.890164
       5840.3790       11.838276
       5841.4583       11.799281
       5842.5376       11.590511
       5843.6169       11.542538
       5844.6962       10.940806
       5845.7755       10.781642
       5846.8548       10.255738
       5847.9341       10.502968
       5849.0133       9.7378585
       5850.0926       9.4302074
       5851.1719       9.2408200
       5852.2512       9.0581518
       5853.3305       8.9823524
       5854.4098       8.7554220
       5855.4891       8.3552820
       5856.5684       8.9109352
       5857.6477       9.2524765
       5858.7269       9.1107669
       5859.8062       9.3577738
       5860.8855       10.123214
       5861.9648       9.9292248
       5863.0441       10.208658
       5864.1234       11.107578
       5865.2027       10.840059
       5866.2820       11.064610
       5867.3612       11.360768
       5868.4405       11.042150
       5869.5198       11.109737
       5870.5991       11.240082
       5871.6784       11.234324
       5872.7577       11.358286
       5873.8370       11.298334
       5874.9163       11.576748
       5875.9955       11.693283
       5877.0748       11.885300
       5878.1541       11.433144
       5879.2334       11.758062
       5880.3127       10.944968
       5881.3920       11.635810
       5882.4713       11.258129
       5883.5506       11.235319
       5884.6298       11.410777
       5885.7091       11.492427
       5886.7884       11.746861
       5887.8677       11.631363
       5888.9470       11.260384
       5890.0263       11.224694
       5891.1056       11.627358
       5892.1849       11.425405
       5893.2641       10.923168
       5894.3434       11.628809
       5895.4227       11.832658
       5896.5020       11.798073
       5897.5813       11.723608
       5898.6606       11.372317
       5899.7399       11.253048
       5900.8192       11.755993
       5901.8985       11.644219
       5902.9777       11.510970
       5904.0570       11.601729
       5905.1363       11.364096
       5906.2156       11.526165
       5907.2949       11.975627
       5908.3742       11.639461
       5909.4535       11.511129
       5910.5328       11.702850
       5911.6120       12.052685
       5912.6913       11.710165
       5913.7706       11.646270
       5914.8499       11.326305
       5915.9292       11.480546
       5917.0085       11.301857
       5918.0878       11.254770
       5919.1671       11.458219
       5920.2463       11.498710
       5921.3256       11.321909
       5922.4049       11.660969
       5923.4842       11.466042
       5924.5635       11.491464
       5925.6428       11.341377
       5926.7221       11.373537
       5927.8014       11.754896
       5928.8806       11.615650
       5929.9599       11.575374
       5931.0392       11.738900
       5932.1185       11.835850
       5933.1978       11.722695
       5934.2771       11.722997
       5935.3564       11.705791
       5936.4357       11.766642
       5937.5150       11.413502
       5938.5942       11.435911
       5939.6735       11.501295
       5940.7528       11.361844
       5941.8321       11.227172
       5942.9114       11.294511
       5943.9907       11.591611
       5945.0700       11.347468
       5946.1493       11.659102
       5947.2285       11.805499
       5948.3078       11.020317
       5949.3871       11.244184
       5950.4664       11.376089
       5951.5457       11.396560
       5952.6250       11.142900
       5953.7043       11.334555
       5954.7836       11.464440
       5955.8628       11.541082
       5956.9421       11.454673
       5958.0214       11.507691
       5959.1007       11.991058
       5960.1800       11.562156
       5961.2593       12.022819
       5962.3386       11.403321
       5963.4179       11.518532
       5964.4971       11.640539
       5965.5764       11.449370
       5966.6557       11.742859
       5967.7350       11.419414
       5968.8143       11.629601
       5969.8936       11.308476
       5970.9729       11.504601
       5972.0522       11.358294
       5973.1315       11.261489
       5974.2107       11.543343
       5975.2900       11.169524
       5976.3693       11.207487
       5977.4486       11.355813
       5978.5279       11.221477
       5979.6072       11.174849
       5980.6865       11.475070
       5981.7658       11.046306
       5982.8450       11.243088
       5983.9243       10.979187
       5985.0036       11.342647
       5986.0829       11.125649
       5987.1622       11.746494
       5988.2415       11.516824
       5989.3208       11.404159
       5990.4001       11.348664
       5991.4793       11.409870
       5992.5586       11.344012
       5993.6379       11.906780
       5994.7172       11.882253
       5995.7965       11.583664
       5996.8758       12.266692
       5997.9551       11.659185
       5999.0344       11.568686
       6000.1136       11.702674
       6001.1929       11.865907
       6002.2722       11.600871
       6003.3515       11.746206
       6004.4308       11.579020
       6005.5101       11.743255
       6006.5894       11.257252
       6007.6687       11.718756
       6008.7480       11.538277
       6009.8272       11.355055
       6010.9065       11.388651
       6011.9858       11.738850
       6013.0651       11.381877
       6014.1444       11.519801
       6015.2237       11.227508
       6016.3030       11.659334
       6017.3823       11.631437
       6018.4615       11.601862
       6019.5408       11.340193
       6020.6201       11.234053
       6021.6994       11.783846
       6022.7787       11.469978
       6023.8580       11.374204
       6024.9373       11.435769
       6026.0166       11.575766
       6027.0958       11.629759
       6028.1751       11.969062
       6029.2544       12.101901
       6030.3337       11.549978
       6031.4130       11.838951
       6032.4923       11.684655
       6033.5716       11.892561
       6034.6509       12.213670
       6035.7301       12.198500
       6036.8094       12.372458
       6037.8887       12.449595
       6038.9680       12.577809
       6040.0473       12.196442
       6041.1266       12.363385
       6042.2059       12.474401
       6043.2852       12.453871
       6044.3645       12.779523
       6045.4437       12.049953
       6046.5230       12.223479
       6047.6023       12.422886
       6048.6816       12.407963
       6049.7609       12.363773
       6050.8402       12.375537
       6051.9195       11.931097
       6052.9988       11.952755
       6054.0780       12.252930
       6055.1573       12.314698
       6056.2366       12.380834
       6057.3159       12.379091
       6058.3952       11.898244
       6059.4745       12.402029
       6060.5538       11.891303
       6061.6331       11.775824
       6062.7123       12.076443
       6063.7916       12.065723
       6064.8709       11.755124
       6065.9502       11.966270
       6067.0295       12.031829
       6068.1088       11.841833
       6069.1881       12.264376
       6070.2674       11.927213
       6071.3466       11.502741
       6072.4259       11.913561
       6073.5052       11.777502
       6074.5845       11.776587
       6075.6638       11.695153
       6076.7431       11.914353
       6077.8224       11.579036
       6078.9017       11.721572
       6079.9810       11.874289
       6081.0602       12.356411
       6082.1395       12.114421
       6083.2188       11.770317
       6084.2981       11.984893
       6085.3774       11.623040
       6086.4567       11.970269
       6087.5360       11.681262
       6088.6153       11.784302
       6089.6945       11.489497
       6090.7738       12.013610
       6091.8531       11.688591
       6092.9324       11.684330
       6094.0117       11.787660
       6095.0910       12.246571
       6096.1703       11.457717
       6097.2496       11.978818
       6098.3288       11.866459
       6099.4081       12.127487
       6100.4874       11.963362
       6101.5667       11.801455
       6102.6460       12.044632
       6103.7253       11.754311
       6104.8046       11.716500
       6105.8839       11.312281
       6106.9631       11.204610
       6108.0424       11.328869
       6109.1217       11.333248
       6110.2010       11.421359
       6111.2803       11.600519
       6112.3596       11.649555
       6113.4389       11.724710
       6114.5182       11.604096
       6115.5974       11.632149
       6116.6767       12.098697
       6117.7560       11.645309
       6118.8353       11.933811
       6119.9146       11.778633
       6120.9939       11.702323
       6122.0732       11.881450
       6123.1525       11.827257
       6124.2318       11.523224
       6125.3110       11.671831
       6126.3903       11.583620
       6127.4696       11.362393
       6128.5489       11.281238
       6129.6282       11.157045
       6130.7075       11.088310
       6131.7868       10.935825
       6132.8661       11.230157
       6133.9453       10.951977
       6135.0246       11.063691
       6136.1039       10.952423
       6137.1832       11.005504
       6138.2625       11.057339
       6139.3418       11.161788
       6140.4211       11.313606
       6141.5004       11.457192
       6142.5796       11.443170
       6143.6589       11.387504
       6144.7382       11.067728
       6145.8175       11.325473
       6146.8968       11.536943
       6147.9761       11.607597
       6149.0554       11.419294
       6150.1347       11.596789
       6151.2139       12.112249
       6152.2932       11.632570
       6153.3725       11.366714
       6154.4518       12.148612
       6155.5311       12.595834
       6156.6104       11.807320
       6157.6897       11.563933
       6158.7690       11.573050
       6159.8483       11.688058
       6160.9275       11.448728
       6162.0068       11.332293
       6163.0861       11.622746
       6164.1654       11.560166
       6165.2447       11.598850
       6166.3240       11.479564
       6167.4033       11.731924
       6168.4826       11.731316
       6169.5618       11.778486
       6170.6411       11.766532
       6171.7204       11.817364
       6172.7997       11.675262
       6173.8790       12.186085
       6174.9583       11.856921
       6176.0376       12.110586
       6177.1169       11.836463
       6178.1961       11.803177
       6179.2754       11.833799
       6180.3547       12.168999
       6181.4340       11.982858
       6182.5133       11.792262
       6183.5926       11.836645
       6184.6719       11.783847
       6185.7512       11.329730
       6186.8304       10.938331
       6187.9097       10.718326
       6188.9890       9.5833254
       6190.0683       9.2160752
       6191.1476       8.8607743
       6192.2269       8.9142780
       6193.3062       8.7036388
       6194.3855       9.1247260
       6195.4648       8.9232868
       6196.5440       9.5954736
       6197.6233       9.9553002
       6198.7026       10.360212
       6199.7819       10.043352
       6200.8612       10.557542
       6201.9405       10.436162
       6203.0198       10.205230
       6204.0991       10.839705
       6205.1783       10.787948
       6206.2576       10.631041
       6207.3369       10.250065
       6208.4162       10.427414
       6209.4955       10.821500
       6210.5748       9.9868077
       6211.6541       10.335954
       6212.7334       10.435299
       6213.8126       10.543871
       6214.8919       10.077401
       6215.9712       10.283459
       6217.0505       10.238492
       6218.1298       10.434223
       6219.2091       10.567396
       6220.2884       10.553111
       6221.3677       10.451492
       6222.4469       10.607112
       6223.5262       10.836849
       6224.6055       10.729365
       6225.6848       10.595875
       6226.7641       10.716377
       6227.8434       10.557533
       6228.9227       10.754548
       6230.0020       10.723716
       6231.0813       10.738888
       6232.1605       10.845300
       6233.2398       10.621530
       6234.3191       11.186407
       6235.3984       11.156790
       6236.4777       11.786725
       6237.5570       11.467024
       6238.6363       11.695265
       6239.7156       11.495044
       6240.7948       11.791750
       6241.8741       11.480792
       6242.9534       11.191017
       6244.0327       11.593029
       6245.1120       11.480070
       6246.1913       11.347408
       6247.2706       11.306087
       6248.3499       11.771665
       6249.4291       11.570723
       6250.5084       11.995071
       6251.5877       11.650431
       6252.6670       11.924596
       6253.7463       11.701492
       6254.8256       11.876729
       6255.9049       11.553114
       6256.9842       11.669645
       6258.0634       11.830460
       6259.1427       11.775664
       6260.2220       12.112242
       6261.3013       12.050095
       6262.3806       11.980477
       6263.4599       12.297345
       6264.5392       12.422031
       6265.6185       12.475804
       6266.6978       11.858165
       6267.7770       12.239235
       6268.8563       12.336355
       6269.9356       12.469883
       6271.0149       12.496104
       6272.0942       12.354714
       6273.1735       12.386538
       6274.2528       12.443623
       6275.3321       12.506062
       6276.4113       12.594699
       6277.4906       12.711307
       6278.5699       12.455691
       6279.6492       12.849251
       6280.7285       13.300643
       6281.8078       13.358103
       6282.8871       13.060691
       6283.9664       11.991991
       6285.0456       11.984653
       6286.1249       12.204095
       6287.2042       12.213711
       6288.2835       12.136965
       6289.3628       11.880927
       6290.4421       11.865872
       6291.5214       12.028623
       6292.6007       11.877083
       6293.6799       12.089984
       6294.7592       11.897226
       6295.8385       11.878708
       6296.9178       11.969306
       6297.9971       11.926546
       6299.0764       12.246484
       6300.1557       12.884047
       6301.2350       12.173592
       6302.3143       12.214510
       6303.3935       12.719948
       6304.4728       12.460831
       6305.5521       12.365172
       6306.6314       12.209557
       6307.7107       12.775094
       6308.7900       12.815533
       6309.8693       12.238341
       6310.9486       12.264603
       6312.0278       12.383336
       6313.1071       12.299852
       6314.1864       12.418639
       6315.2657       12.130690
       6316.3450       12.144841
       6317.4243       11.748681
       6318.5036       12.101596
       6319.5829       12.329137
       6320.6621       11.904101
       6321.7414       12.056849
       6322.8207       12.411839
       6323.9000       12.470254
       6324.9793       12.279346
       6326.0586       12.189878
       6327.1379       12.155490
       6328.2172       12.557404
       6329.2964       12.250466
       6330.3757       12.726101
       6331.4550       12.375980
       6332.5343       12.401251
       6333.6136       12.150666
       6334.6929       11.893831
       6335.7722       12.172482
       6336.8515       11.932313
       6337.9307       12.176022
       6339.0100       11.960603
       6340.0893       12.198670
       6341.1686       11.865646
       6342.2479       12.131080
       6343.3272       12.958588
       6344.4065       12.530588
       6345.4858       12.587250
       6346.5651       12.722714
       6347.6443       12.836997
       6348.7236       13.027868
       6349.8029       12.903609
       6350.8822       13.059193
       6351.9615       12.651428
       6353.0408       13.194670
       6354.1201       12.831137
       6355.1994       12.910210
       6356.2786       12.634278
       6357.3579       12.766140
       6358.4372       12.722747
       6359.5165       13.213030
       6360.5958       12.830714
       6361.6751       13.065734
       6362.7544       12.859673
       6363.8337       13.227991
       6364.9129       12.841407
       6365.9922       12.822955
       6367.0715       12.771901
       6368.1508       12.889646
       6369.2301       12.913794
       6370.3094       13.065132
       6371.3887       12.507379
       6372.4680       12.725641
       6373.5472       12.380017
       6374.6265       12.703770
       6375.7058       12.897817
       6376.7851       12.926444
       6377.8644       12.887932
       6378.9437       12.823414
       6380.0230       12.640827
       6381.1023       12.908406
       6382.1816       12.710647
       6383.2608       12.785486
       6384.3401       12.980014
       6385.4194       12.698258
       6386.4987       12.841754
       6387.5780       12.770548
       6388.6573       12.513500
       6389.7366       12.604017
       6390.8159       12.801939
       6391.8951       12.234798
       6392.9744       12.564660
       6394.0537       12.646839
       6395.1330       13.023046
       6396.2123       12.820591
       6397.2916       12.603805
       6398.3709       12.444262
       6399.4502       12.828178
       6400.5294       12.799201
       6401.6087       13.050635
       6402.6880       12.976908
       6403.7673       13.169128
       6404.8466       12.655753
       6405.9259       12.901457
       6407.0052       12.837708
       6408.0845       12.796700
       6409.1637       12.979368
       6410.2430       12.818557
       6411.3223       13.037642
       6412.4016       12.861675
       6413.4809       12.671402
       6414.5602       12.615310
       6415.6395       13.171640
       6416.7188       13.036864
       6417.7981       12.886982
       6418.8773       12.660842
       6419.9566       12.866277
       6421.0359       12.913379
       6422.1152       13.350634
       6423.1945       12.977631
       6424.2738       12.710141
       6425.3531       12.497836
       6426.4324       12.866527
       6427.5116       13.070038
       6428.5909       12.862660
       6429.6702       12.471241
       6430.7495       12.719657
       6431.8288       13.014994
       6432.9081       13.318948
       6433.9874       12.738485
       6435.0667       13.096496
       6436.1459       13.272190
       6437.2252       13.079696
       6438.3045       12.835897
       6439.3838       13.107377
       6440.4631       12.801703
       6441.5424       12.821697
       6442.6217       12.918849
       6443.7010       12.819857
       6444.7802       13.439517
       6445.8595       13.033847
       6446.9388       13.311019
       6448.0181       13.258555
       6449.0974       13.374645
       6450.1767       13.256669
       6451.2560       13.336737
       6452.3353       13.499637
       6453.4146       13.231140
       6454.4938       13.445588
       6455.5731       13.127069
       6456.6524       13.692574
       6457.7317       13.476319
       6458.8110       13.235305
       6459.8903       13.216957
       6460.9696       13.188920
       6462.0489       12.816354
       6463.1281       13.248850
       6464.2074       13.227927
       6465.2867       13.001058
       6466.3660       12.772736
       6467.4453       12.951161
       6468.5246       12.800127
       6469.6039       12.292435
       6470.6832       11.855304
       6471.7624       12.388530
       6472.8417       11.702296
       6473.9210       11.662522
       6475.0003       12.017802
       6476.0796       11.738343
       6477.1589       11.963284
       6478.2382       12.282718
       6479.3175       12.566467
       6480.3967       12.117091
       6481.4760       12.382145
       6482.5553       12.346823
       6483.6346       12.495910
       6484.7139       12.540239
       6485.7932       12.423741
       6486.8725       12.599587
       6487.9518       12.363583
       6489.0311       12.884095
       6490.1103       13.075772
       6491.1896       12.621056
       6492.2689       12.633920
       6493.3482       12.608606
       6494.4275       12.751629
       6495.5068       12.707517
       6496.5861       12.424248
       6497.6654       12.640899
       6498.7446       12.719931
       6499.8239       12.419414
       6500.9032       12.664328
       6501.9825       12.822016
       6503.0618       12.732972
       6504.1411       12.913120
       6505.2204       13.210260
       6506.2997       13.370785
       6507.3789       13.144852
       6508.4582       13.354464
       6509.5375       13.033566
       6510.6168       13.272585
       6511.6961       13.245624
       6512.7754       13.317534
       6513.8547       13.746254
       6514.9340       13.386376
       6516.0132       13.412424
       6517.0925       13.569692
       6518.1718       13.441382
       6519.2511       13.860061
       6520.3304       13.943717
       6521.4097       13.612579
       6522.4890       13.909446
       6523.5683       14.113044
       6524.6476       14.755413
       6525.7268       14.795686
       6526.8061       15.020295
       6527.8854       15.413707
       6528.9647       15.150187
       6530.0440       14.848293
       6531.1233       13.906839
       6532.2026       13.278466
       6533.2819       13.027641
       6534.3611       13.311799
       6535.4404       13.000612
       6536.5197       13.303708
       6537.5990       13.590094
       6538.6783       15.274945
       6539.7576       15.473059
       6540.8369       16.042252
       6541.9162       16.477343
       6542.9954       16.085263
       6544.0747       16.594974
       6545.1540       15.903559
       6546.2333       15.137066
       6547.3126       13.870983
       6548.3919       13.729776
       6549.4712       13.457202
       6550.5505       12.929542
       6551.6297       12.830602
       6552.7090       13.132166
       6553.7883       12.885074
       6554.8676       13.606590
       6555.9469       14.028984
       6557.0262       14.473317
       6558.1055       15.699193
       6559.1848       17.305939
       6560.2640       18.194546
       6561.3433       19.741684
       6562.4226       19.916317
       6563.5019       20.979333
       6564.5812       20.540199
       6565.6605       19.448863
       6566.7398       18.177733
       6567.8191       17.557258
       6568.8984       15.280042
       6569.9776       14.727348
       6571.0569       14.883798
       6572.1362       14.243990
       6573.2155       13.698591
       6574.2948       13.548073
       6575.3741       12.917666
       6576.4534       12.992979
       6577.5327       13.228083
       6578.6119       12.847847
       6579.6912       13.202858
       6580.7705       12.807026
       6581.8498       13.208630
       6582.9291       13.570310
       6584.0084       13.004239
       6585.0877       13.398382
       6586.1670       13.655848
       6587.2462       13.505438
       6588.3255       13.456076
       6589.4048       13.709655
       6590.4841       13.551488
       6591.5634       13.258945
       6592.6427       12.950184
       6593.7220       13.741842
       6594.8013       13.264142
       6595.8805       13.169125
       6596.9598       14.062173
       6598.0391       13.408363
       6599.1184       13.669727
       6600.1977       12.669802
       6601.2770       13.093218
       6602.3563       13.591795
       6603.4356       12.872345
       6604.5149       13.479925
       6605.5941       13.739904
       6606.6734       13.707672
       6607.7527       13.668082
       6608.8320       13.700224
       6609.9113       13.681870
       6610.9906       13.804890
       6612.0699       13.458290
       6613.1492       13.154376
       6614.2284       13.330669
       6615.3077       13.642755
       6616.3870       13.194128
       6617.4663       13.612477
       6618.5456       13.505068
       6619.6249       13.617467
       6620.7042       13.417467
       6621.7835       14.062290
       6622.8627       13.839555
       6623.9420       13.574776
       6625.0213       13.688218
       6626.1006       13.604535
       6627.1799       14.380017
       6628.2592       13.069297
       6629.3385       13.695843
       6630.4178       13.661562
       6631.4970       13.986295
       6632.5763       13.474211
       6633.6556       13.590989
       6634.7349       13.585317
       6635.8142       13.811473
       6636.8935       13.791429
       6637.9728       14.241484
       6639.0521       13.734873
       6640.1314       13.843596
       6641.2106       13.863400
       6642.2899       13.598103
       6643.3692       13.590300
       6644.4485       13.120957
       6645.5278       13.289909
       6646.6071       13.627926
       6647.6864       12.916935
       6648.7657       14.024025
       6649.8449       13.650196
       6650.9242       14.054011
       6652.0035       14.113673
       6653.0828       13.917265
       6654.1621       14.135914
       6655.2414       13.561394
       6656.3207       13.582416
       6657.4000       13.697322
       6658.4792       13.524293
       6659.5585       13.797521
       6660.6378       13.388978
       6661.7171       14.258423
       6662.7964       13.604018
       6663.8757       13.742329
       6664.9550       14.084313
       6666.0343       14.135945
       6667.1135       13.708828
       6668.1928       14.166610
       6669.2721       14.408558
       6670.3514       14.258642
       6671.4307       14.327617
       6672.5100       13.991769
       6673.5893       13.555933
       6674.6686       13.823261
       6675.7479       14.004938
       6676.8271       13.932800
       6677.9064       14.114944
       6678.9857       13.683403
       6680.0650       13.729774
       6681.1443       13.479814
       6682.2236       13.408331
       6683.3029       13.846423
       6684.3822       13.542322
       6685.4614       13.942616
       6686.5407       13.914378
       6687.6200       13.973076
       6688.6993       13.636016
       6689.7786       14.449523
       6690.8579       14.454728
       6691.9372       14.347635
       6693.0165       14.325435
       6694.0957       15.306315
       6695.1750       14.927718
       6696.2543       15.172188
       6697.3336       15.810147
       6698.4129       15.602707
       6699.4922       15.769547
       6700.5715       15.087059
       6701.6508       14.916991
       6702.7300       14.966795
       6703.8093       14.944207
       6704.8886       14.718712
       6705.9679       14.549021
       6707.0472       14.402738
       6708.1265       15.120840
       6709.2058       15.093181
       6710.2851       15.265750
       6711.3644       15.749673
       6712.4436       15.677231
       6713.5229       15.727216
       6714.6022       15.847821
       6715.6815       15.207235
       6716.7608       15.278487
       6717.8401       14.902639
       6718.9194       14.513273
       6719.9987       14.358807
       6721.0779       14.333463
       6722.1572       14.561865
       6723.2365       13.859282
       6724.3158       13.975702
       6725.3951       14.096645
       6726.4744       13.982659
       6727.5537       13.447180
       6728.6330       13.730552
       6729.7122       14.404096
       6730.7915       13.715384
       6731.8708       13.912378
       6732.9501       13.763683
       6734.0294       13.621580
       6735.1087       13.761439
       6736.1880       13.942017
       6737.2673       13.870833
       6738.3465       14.197948
       6739.4258       13.827512
       6740.5051       14.382220
       6741.5844       14.057933
       6742.6637       14.140825
       6743.7430       14.108781
       6744.8223       14.401097
       6745.9016       14.382572
       6746.9808       14.419824
       6748.0601       14.332509
       6749.1394       14.575634
       6750.2187       14.308551
       6751.2980       14.401765
       6752.3773       14.331530
       6753.4566       14.283890
       6754.5359       14.481703
       6755.6152       14.626461
       6756.6944       14.807117
       6757.7737       14.397456
       6758.8530       14.633489
       6759.9323       14.332548
       6761.0116       14.706089
       6762.0909       14.357482
       6763.1702       14.251026
       6764.2495       14.577297
       6765.3287       13.771528
       6766.4080       14.289439
       6767.4873       14.165091
       6768.5666       14.434673
       6769.6459       14.345544
       6770.7252       14.470112
       6771.8045       14.430943
       6772.8838       14.238184
       6773.9630       13.867724
       6775.0423       13.748855
       6776.1216       14.489933
       6777.2009       14.470459
       6778.2802       14.215945
       6779.3595       14.236851
       6780.4388       14.108318
       6781.5181       14.343625
       6782.5973       14.242367
       6783.6766       14.862939
       6784.7559       14.450121
       6785.8352       14.479092
       6786.9145       14.707035
       6787.9938       14.337545
       6789.0731       14.802688
       6790.1524       14.830108
       6791.2317       15.175991
       6792.3109       15.117690
       6793.3902       14.668522
       6794.4695       14.055308
       6795.5488       14.506592
       6796.6281       14.552765
       6797.7074       14.525705
       6798.7867       14.288191
       6799.8660       14.635035
       6800.9452       14.470050
       6802.0245       15.101980
       6803.1038       14.711263
       6804.1831       14.839587
       6805.2624       14.699572
       6806.3417       14.778332
       6807.4210       14.499911
       6808.5003       14.662322
       6809.5795       14.562490
       6810.6588       14.508024
       6811.7381       14.738808
       6812.8174       14.548677
       6813.8967       14.771931
       6814.9760       14.787538
       6816.0553       14.730524
       6817.1346       14.745124
       6818.2138       14.662982
       6819.2931       14.681125
       6820.3724       14.121100
       6821.4517       14.408139
       6822.5310       14.406850
       6823.6103       14.657594
       6824.6896       14.338332
       6825.7689       14.465316
       6826.8482       14.390532
       6827.9274       14.857585
       6829.0067       14.346298
       6830.0860       14.312554
       6831.1653       14.362935
       6832.2446       14.768225
       6833.3239       14.823269
       6834.4032       14.917084
       6835.4825       14.206864
       6836.5617       14.530609
       6837.6410       14.421431
       6838.7203       13.801827
       6839.7996       14.343733
       6840.8789       14.025668
       6841.9582       14.589873
       6843.0375       14.222444
       6844.1168       14.480722
       6845.1960       14.517507
       6846.2753       14.975963
       6847.3546       14.826795
       6848.4339       14.940048
       6849.5132       15.112426
       6850.5925       14.799514
       6851.6718       14.792031
       6852.7511       14.316554
       6853.8303       14.007129
       6854.9096       12.886360
       6855.9889       11.475997
       6857.0682       10.475561
       6858.1475       9.3802258
       6859.2268       8.4359507
       6860.3061       7.3705490
       6861.3854       6.2171222
       6862.4647             NaN
       6863.5439             NaN
       6864.6232             NaN
       6865.7025             NaN
       6866.7818             NaN
       6867.8611             NaN
       6868.9404             NaN
       6870.0197             NaN
       6871.0990             NaN
       6872.1782             NaN
       6873.2575             NaN
       6874.3368             NaN
       6875.4161             NaN
       6876.4954             NaN
       6877.5747             NaN
       6878.6540             NaN
       6879.7333             NaN
       6880.8125             NaN
       6881.8918             NaN
       6882.9711             NaN
       6884.0504             NaN
       6885.1297             NaN
       6886.2090             NaN
       6887.2883             NaN
       6888.3676             NaN
       6889.4468             NaN
       6890.5261             NaN
       6891.6054             NaN
       6892.6847             NaN
       6893.7640             NaN
       6894.8433             NaN
       6895.9226             NaN
       6897.0019             NaN
       6898.0812             NaN
       6899.1604             NaN
       6900.2397             NaN
       6901.3190             NaN
       6902.3983             NaN
       6903.4776             NaN
       6904.5569             NaN
       6905.6362             NaN
       6906.7155             NaN
       6907.7947             NaN
       6908.8740             NaN
       6909.9533             NaN
       6911.0326             NaN
       6912.1119             NaN
       6913.1912             NaN
       6914.2705             NaN
       6915.3498             NaN
       6916.4290             NaN
       6917.5083             NaN
       6918.5876             NaN
       6919.6669             NaN
       6920.7462             NaN
       6921.8255             NaN
       6922.9048             NaN
       6923.9841             NaN
       6925.0633             NaN
       6926.1426             NaN
       6927.2219             NaN
       6928.3012             NaN
       6929.3805             NaN
       6930.4598             NaN
       6931.5391             NaN
       6932.6184             NaN
       6933.6977             NaN
       6934.7769             NaN
       6935.8562             NaN
       6936.9355             NaN
       6938.0148             NaN
       6939.0941             NaN
       6940.1734             NaN
       6941.2527             NaN
       6942.3320             NaN
       6943.4112             NaN
       6944.4905             NaN
       6945.5698             NaN
       6946.6491             NaN
       6947.7284             NaN
       6948.8077             NaN
       6949.8870             NaN
       6950.9663             NaN
       6952.0455             NaN
       6953.1248             NaN
       6954.2041             NaN
       6955.2834             NaN
       6956.3627             NaN
       6957.4420             NaN
       6958.5213       14.693766
       6959.6006       14.878351
       6960.6798       15.272620
       6961.7591       14.538246
       6962.8384       14.774864
       6963.9177       14.330409
       6964.9970       14.317593
       6966.0763       14.458287
       6967.1556       14.873530
       6968.2349       14.954754
       6969.3141       14.615053
       6970.3934       14.563657
       6971.4727       14.968877
       6972.5520       15.918645
       6973.6313       14.991638
       6974.7106       15.216853
       6975.7899       15.102880
       6976.8692       14.661786
       6977.9485       15.306865
       6979.0277       15.391252
       6980.1070       14.699942
       6981.1863       15.320829
       6982.2656       14.516636
       6983.3449       14.839949
       6984.4242       14.971223
       6985.5035       14.953118
       6986.5828       15.270363
       6987.6620       14.770710
       6988.7413       14.769999
       6989.8206       14.670201
       6990.8999       15.219118
       6991.9792       14.945659
       6993.0585       15.004752
       6994.1378       15.001793
       6995.2171       14.570373
       6996.2963       14.590458
       6997.3756       14.832411
       6998.4549       14.493424
       6999.5342       15.107589
       7000.6135       13.839606
       7001.6928       13.925040
       7002.7721       14.973798
       7003.8514       14.598359
       7004.9306       14.364295
       7006.0099       14.785650
       7007.0892       14.855189
       7008.1685       15.054179
       7009.2478       14.931123
       7010.3271       15.293332
       7011.4064       14.875515
       7012.4857       14.858822
       7013.5650       14.611937
       7014.6442       14.552902
       7015.7235       15.109104
       7016.8028       15.320665
       7017.8821       15.094142
       7018.9614       15.454107
       7020.0407       15.427565
       7021.1200       14.641419
       7022.1993       15.189043
       7023.2785       15.235458
       7024.3578       15.010774
       7025.4371       14.798293
       7026.5164       15.378621
       7027.5957       15.088880
       7028.6750       15.756580
       7029.7543       15.367410
       7030.8336       15.138834
       7031.9128       15.352895
       7032.9921       15.141413
       7034.0714       15.172842
       7035.1507       15.446919
       7036.2300       14.573160
       7037.3093       14.596713
       7038.3886       14.452785
       7039.4679       14.595464
       7040.5471       14.094594
       7041.6264       14.367636
       7042.7057       14.321715
       7043.7850       14.430265
       7044.8643       14.583154
       7045.9436       14.787064
       7047.0229       13.934241
       7048.1022       14.163885
       7049.1815       14.256560
       7050.2607       14.397188
       7051.3400       14.076809
       7052.4193       14.610792
       7053.4986       14.428923
       7054.5779       14.867528
       7055.6572       14.885150
       7056.7365       14.437517
       7057.8158       14.419501
       7058.8950       14.503646
       7059.9743       14.813970
       7061.0536       15.277647
       7062.1329       15.493055
       7063.2122       15.403139
       7064.2915       14.862050
       7065.3708       14.437452
       7066.4501       13.996015
       7067.5293       14.376840
       7068.6086       14.289567
       7069.6879       13.872375
       7070.7672       13.854404
       7071.8465       14.001945
       7072.9258       13.500322
       7074.0051       13.969458
       7075.0844       13.666715
       7076.1636       14.151388
       7077.2429       14.263899
       7078.3222       14.352266
       7079.4015       14.007321
       7080.4808       14.450776
       7081.5601       14.055544
       7082.6394       13.775914
       7083.7187       14.104795
       7084.7980       14.167462
       7085.8772       13.959076
       7086.9565       14.155506
       7088.0358       14.305879
       7089.1151       14.259794
       7090.1944       14.156766
       7091.2737       13.623075
       7092.3530       13.347651
       7093.4323       13.837888
       7094.5115       13.400645
       7095.5908       13.449585
       7096.6701       14.076956
       7097.7494       13.611776
       7098.8287       13.699298
       7099.9080       14.444361
       7100.9873       13.748094
       7102.0666       13.994031
       7103.1458       14.190755
       7104.2251       14.018761
       7105.3044       14.067003
       7106.3837       13.917547
       7107.4630       13.856744
       7108.5423       13.392872
       7109.6216       13.698114
       7110.7009       13.691878
       7111.7801       13.967300
       7112.8594       13.694671
       7113.9387       14.180455
       7115.0180       13.705073
       7116.0973       13.593268
       7117.1766       14.279684
       7118.2559       14.396261
       7119.3352       13.658736
       7120.4145       13.973119
       7121.4937       13.728444
       7122.5730       13.892538
       7123.6523       13.899730
       7124.7316       13.333875
       7125.8109       13.919644
       7126.8902       13.730870
       7127.9695       13.799298
       7129.0488       13.683698
       7130.1280       14.008477
       7131.2073       13.612122
       7132.2866       13.953771
       7133.3659       13.723481
       7134.4452       13.982388
       7135.5245       13.666225
       7136.6038       14.134904
       7137.6831       13.965186
       7138.7623       14.181239
       7139.8416       13.881428
       7140.9209       13.798313
       7142.0002       13.999252
       7143.0795       13.882657
       7144.1588       13.403875
       7145.2381       13.976442
       7146.3174       14.512233
       7147.3966       13.566203
       7148.4759       13.590811
       7149.5552       14.783809
       7150.6345       13.963237
       7151.7138       13.462610
       7152.7931       13.927150
       7153.8724       13.695012
       7154.9517       13.408178
       7156.0310       14.330283
       7157.1102       14.047635
       7158.1895       14.266409
       7159.2688       14.487668
       7160.3481       14.285038
       7161.4274       14.243007
       7162.5067       13.895835
       7163.5860       13.883216
       7164.6653       14.752603
       7165.7445       13.934995
       7166.8238       14.192673
       7167.9031       13.868486
       7168.9824       13.822696
       7170.0617       14.113822
       7171.1410       14.007206
       7172.2203       13.949313
       7173.2996       13.678023
       7174.3788       13.641460
       7175.4581       13.924571
       7176.5374       13.673211
       7177.6167       13.941844
       7178.6960       13.810591
       7179.7753       14.054760
       7180.8546       14.144435
       7181.9339       14.078919
       7183.0131       14.095356
       7184.0924       13.924847
       7185.1717       13.881376
       7186.2510       14.222144
       7187.3303       13.588150
       7188.4096       14.127178
       7189.4889       13.967193
       7190.5682       14.406049
       7191.6474       13.230595
       7192.7267       13.460987
       7193.8060       14.796502
       7194.8853       15.391848
       7195.9646       14.591544
       7197.0439       13.915521
       7198.1232       14.454659
       7199.2025       14.184985
       7200.2818       14.423152
       7201.3610       14.603216
       7202.4403       14.004991
       7203.5196       14.415880
       7204.5989       14.661438
       7205.6782       14.546055
       7206.7575       14.383898
       7207.8368       14.117569
       7208.9161       14.260783
       7209.9953       15.035847
       7211.0746       14.432069
       7212.1539       14.605630
       7213.2332       14.476922
       7214.3125       14.384656
       7215.3918       14.534506
       7216.4711       14.677601
       7217.5504       14.410106
       7218.6296       14.417397
       7219.7089       14.577155
       7220.7882       14.086153
       7221.8675       14.460179
       7222.9468       14.833629
       7224.0261       14.355006
       7225.1054       14.467723
       7226.1847       14.561499
       7227.2639       15.129577
       7228.3432       14.433882
       7229.4225       14.910194
       7230.5018       14.451730
       7231.5811       14.482491
       7232.6604       15.064454
       7233.7397       14.530285
       7234.8190       14.825958
       7235.8983       14.788192
       7236.9775       15.033586
       7238.0568       14.912481
       7239.1361       14.917642
       7240.2154       15.225178
       7241.2947       14.485432
       7242.3740       14.781167
       7243.4533       14.702043
       7244.5326       15.153861
       7245.6118       14.675496
       7246.6911       14.735771
       7247.7704       14.418668
       7248.8497       14.852911
       7249.9290       14.609117
       7251.0083       15.011254
       7252.0876       14.788078
       7253.1669       14.694751
       7254.2461       15.041883
       7255.3254       14.889186
       7256.4047       15.192699
       7257.4840       14.694038
       7258.5633       15.094339
       7259.6426       14.620334
       7260.7219       14.457547
       7261.8012       14.815996
       7262.8804       15.158437
       7263.9597       14.828317
       7265.0390       14.587853
       7266.1183       14.469623
       7267.1976       14.493290
       7268.2769       13.809206
       7269.3562       13.951272
       7270.4355       14.623877
       7271.5148       14.013434
       7272.5940       14.537461
       7273.6733       14.260487
       7274.7526       14.685989
       7275.8319       15.134355
       7276.9112       14.864797
       7277.9905       14.767810
       7279.0698       15.444245
       7280.1491       15.598646
       7281.2283       15.101504
       7282.3076       15.828877
       7283.3869       16.131592
       7284.4662       15.600282
       7285.5455       15.617937
       7286.6248       15.985651
       7287.7041       15.603732
       7288.7834       15.197907
       7289.8626       15.741039
       7290.9419       15.431604
       7292.0212       15.213658
       7293.1005       14.896190
       7294.1798       15.027924
       7295.2591       14.969361
       7296.3384       14.797390
       7297.4177       15.288267
       7298.4969       14.676865
       7299.5762       14.901845
       7300.6555       14.655309
       7301.7348       15.024977
       7302.8141       15.233903
       7303.8934       15.554457
       7304.9727       14.831152
       7306.0520       14.884892
       7307.1313       14.538213
       7308.2105       14.787315
       7309.2898       14.743819
       7310.3691       14.681002
       7311.4484       15.223325
       7312.5277       14.595749
       7313.6070       15.102440
       7314.6863       15.011486
       7315.7656       14.544978
       7316.8448       14.882560
       7317.9241       14.667087
       7319.0034       14.742161
       7320.0827       15.374231
       7321.1620       15.536645
       7322.2413       14.908992
       7323.3206       15.357159
       7324.3999       14.911591
       7325.4791       15.110804
       7326.5584       14.908660
       7327.6377       15.132794
       7328.7170       15.587752
       7329.7963       15.046035
       7330.8756       15.227424
       7331.9549       15.053056
       7333.0342       14.997722
       7334.1134       14.777092
       7335.1927       15.115941
       7336.2720       14.706472
       7337.3513       14.549722
       7338.4306       15.058857
       7339.5099       14.777364
       7340.5892       14.771460
       7341.6685       14.820306
       7342.7478       14.951222
       7343.8270       14.655420
       7344.9063       14.817890
       7345.9856       14.576100
       7347.0649       14.799211
       7348.1442       14.853656
       7349.2235       14.570868
       7350.3028       14.887335
       7351.3821       15.124320
       7352.4613       14.857026
       7353.5406       14.825601
       7354.6199       14.802193
       7355.6992       15.180160
       7356.7785       15.062635
       7357.8578       14.885887
       7358.9371       15.145346
       7360.0164       15.227290
       7361.0956       15.432749
       7362.1749       15.378379
       7363.2542       14.636603
       7364.3335       15.067824
       7365.4128       15.241750
       7366.4921       14.957408
       7367.5714       14.621203
       7368.6507       14.649578
       7369.7299       14.215320
       7370.8092       14.170884
       7371.8885       14.157656
       7372.9678       14.553195
       7374.0471       14.234252
       7375.1264       13.995392
       7376.2057       14.405156
       7377.2850       14.248281
       7378.3643       14.429191
       7379.4435       14.655510
       7380.5228       14.717025
       7381.6021       14.832731
       7382.6814       14.662389
       7383.7607       14.836299
       7384.8400       14.911720
       7385.9193       15.000469
       7386.9986       14.830649
       7388.0778       14.960289
       7389.1571       15.159848
       7390.2364       14.662842
       7391.3157       14.676873
       7392.3950       14.871397
       7393.4743       14.774970
       7394.5536       15.333437
       7395.6329       14.575429
       7396.7121       14.672140
       7397.7914       14.493059
       7398.8707       14.399976
       7399.9500       14.357705
       7401.0293       14.439972
       7402.1086       14.509469
       7403.1879       14.471489
       7404.2672       14.325311
       7405.3464       14.646388
       7406.4257       14.772678
       7407.5050       15.526005
       7408.5843       15.328206
       7409.6636       15.682235
       7410.7429       15.554578
       7411.8222       15.872033
       7412.9015       15.679147
       7413.9807       15.577698
       7415.0600       15.319287
       7416.1393       15.615474
       7417.2186       15.551956
       7418.2979       15.675387
       7419.3772       15.430319
       7420.4565       15.698763
       7421.5358       15.303558
       7422.6151       15.259879
       7423.6943       15.414578
       7424.7736       15.293544
       7425.8529       15.283960
       7426.9322       15.140153
       7428.0115       14.580411
       7429.0908       14.649117
       7430.1701       14.441147
       7431.2494       14.483852
       7432.3286       14.471184
       7433.4079       14.662340
       7434.4872       14.570406
       7435.5665       14.651537
       7436.6458       15.272185
       7437.7251       15.332678
       7438.8044       15.150869
       7439.8837       15.552920
       7440.9629       15.454446
       7442.0422       15.450063
       7443.1215       14.928311
       7444.2008       15.215952
       7445.2801       15.689711
       7446.3594       15.411493
       7447.4387       15.415689
       7448.5180       15.522667
       7449.5972       15.837575
       7450.6765       15.688672
       7451.7558       16.017633
       7452.8351       15.386704
       7453.9144       15.521073
       7454.9937       15.672484
       7456.0730       15.337528
       7457.1523       15.655686
       7458.2316       15.766454
       7459.3108       15.512090
       7460.3901       15.408503
       7461.4694       15.254105
       7462.5487       15.863307
       7463.6280       16.245913
       7464.7073       15.661911
       7465.7866       16.045242
       7466.8659       15.757723
       7467.9451       15.536975
       7469.0244       15.264472
       7470.1037       15.612234
       7471.1830       15.710778
       7472.2623       15.614841
       7473.3416       15.425534
       7474.4209       14.812079
       7475.5002       15.019375
       7476.5794       14.610762
       7477.6587       14.394277
       7478.7380       13.486517
       7479.8173       14.276133
       7480.8966       13.415251
       7481.9759       13.924615
       7483.0552       13.108640
       7484.1345       14.134051
       7485.2137       15.025941
       7486.2930       15.006240
       7487.3723       15.332220
       7488.4516       15.154646
       7489.5309       15.483190
       7490.6102       15.261146
       7491.6895       14.837102
       7492.7688       15.287296
       7493.8481       15.483600
       7494.9273       15.495028
       7496.0066       15.214445
       7497.0859       14.871619
       7498.1652       15.048250
       7499.2445       15.885964
       7500.3238       16.055919
       7501.4031       16.136136
       7502.4824       15.819234
       7503.5616       15.874398
       7504.6409       16.106909
       7505.7202       15.948186
       7506.7995       16.146830
       7507.8788       15.894329
       7508.9581       15.519390
       7510.0374       15.763390
       7511.1167       16.031252
       7512.1959       16.054214
       7513.2752       15.583802
       7514.3545       15.686477
       7515.4338       15.999280
       7516.5131       16.063020
       7517.5924       15.964719
       7518.6717       16.277224
       7519.7510       16.335416
       7520.8302       16.180964
       7521.9095       16.495330
       7522.9888       16.424523
       7524.0681       16.283191
       7525.1474       16.318503
       7526.2267       16.474083
       7527.3060       15.859770
       7528.3853       16.241436
       7529.4646       16.077374
       7530.5438       15.963667
       7531.6231       16.685759
       7532.7024       15.907443
       7533.7817       15.301801
       7534.8610       15.541824
       7535.9403       14.390732
       7537.0196       14.473250
       7538.0989       15.164522
       7539.1781       14.628801
       7540.2574       15.938889
       7541.3367       16.777090
       7542.4160       16.278945
       7543.4953       15.563847
       7544.5746       16.820294
       7545.6539       15.571646
       7546.7332       15.925804
       7547.8124       16.242505
       7548.8917       16.184560
       7549.9710       15.673485
       7551.0503       15.860213
       7552.1296       16.128819
       7553.2089       16.525021
       7554.2882       16.709367
       7555.3675       16.430207
       7556.4467       16.250621
       7557.5260       16.096027
       7558.6053       16.304223
       7559.6846       16.104138
       7560.7639       16.179461
       7561.8432       16.281195
       7562.9225       15.535177
       7564.0018       16.358146
       7565.0811       16.260998
       7566.1603       16.211928
       7567.2396       16.367063
       7568.3189       15.889213
       7569.3982       15.429932
       7570.4775       16.120642
       7571.5568       15.568755
       7572.6361       15.515971
       7573.7154       15.631747
       7574.7946       16.153609
       7575.8739       16.134733
       7576.9532       15.658640
       7578.0325       15.916219
       7579.1118       15.649477
       7580.1911       15.628002
       7581.2704       15.532526
       7582.3497       14.827669
       7583.4289       15.225666
       7584.5082       15.373739
       7585.5875       14.536825
       7586.6668       14.747815
       7587.7461       15.728222
       7588.8254       15.524371
       7589.9047       15.448509
       7590.9840       15.527640
       7592.0632       15.696598
       7593.1425       15.884330
       7594.2218       15.794114
       7595.3011       15.555661
       7596.3804       15.575569
       7597.4597       15.229855
       7598.5390       15.971760
       7599.6183       15.695579
       7600.6976       15.569959
       7601.7768       15.326235
       7602.8561       15.529161
       7603.9354       15.553603
       7605.0147       15.694248
       7606.0940       16.045480
       7607.1733       15.844024
       7608.2526       15.621861
       7609.3319       15.763543
       7610.4111       15.738365
       7611.4904       15.019238
       7612.5697       14.867958
       7613.6490       15.211473
       7614.7283       15.384765
       7615.8076       15.385977
       7616.8869       16.062877
       7617.9662       16.151280
       7619.0454       15.989917
       7620.1247       15.740803
       7621.2040       15.935189
       7622.2833       15.614854
       7623.3626       15.975900
       7624.4419       15.755197
       7625.5212       15.926795
       7626.6005       16.098466
       7627.6797       15.670275
       7628.7590       15.789627
       7629.8383       16.282938
       7630.9176       15.804928
       7631.9969       15.709208
       7633.0762       15.609992
       7634.1555       15.629275
       7635.2348       15.307684
       7636.3140       14.507716
       7637.3933       15.358727
       7638.4726       15.256554
       7639.5519       15.170210
       7640.6312       14.916756
       7641.7105       15.008015
       7642.7898       14.213176
       7643.8691       14.273605
       7644.9484       13.764855
       7646.0276       13.961882
       7647.1069       13.864153
       7648.1862       14.375868
       7649.2655       14.795072
       7650.3448       15.282014
       7651.4241       15.227218
       7652.5034       15.195524
       7653.5827       15.771355
       7654.6619       15.644456
       7655.7412       15.522900
       7656.8205       15.365364
       7657.8998       15.650617
       7658.9791       15.684068
       7660.0584       15.296313
       7661.1377       15.601584
       7662.2170       15.727868
       7663.2962       15.725667
       7664.3755       15.805319
       7665.4548       15.511447
       7666.5341       15.795170
       7667.6134       15.399078
       7668.6927       15.490644
       7669.7720       15.478227
       7670.8513       15.240220
       7671.9305       15.189247
       7673.0098       15.464694
       7674.0891       15.041263
       7675.1684       15.332473
       7676.2477       15.307310
       7677.3270       15.406859
       7678.4063       14.779256
       7679.4856       15.198589
       7680.5649       14.876616
       7681.6441       14.885046
       7682.7234       15.435553
       7683.8027       15.132096
       7684.8820       15.243118
       7685.9613       15.492106
       7687.0406       15.696016
       7688.1199       15.325331
       7689.1992       15.676135
       7690.2784       15.432194
       7691.3577       15.130176
       7692.4370       15.316774
       7693.5163       15.370237
       7694.5956       14.899880
       7695.6749       14.883048
       7696.7542       15.077933
       7697.8335       14.849281
       7698.9127       14.732792
       7699.9920       15.489454
       7701.0713       15.179280
       7702.1506       15.018297
       7703.2299       15.127564
       7704.3092       15.301981
       7705.3885       15.406620
       7706.4678       15.322782
       7707.5470       15.580339
       7708.6263       15.377665
       7709.7056       15.850225
       7710.7849       15.776288
       7711.8642       15.890370
       7712.9435       16.259412
       7714.0228       15.880195
       7715.1021       15.823099
       7716.1814       15.915975
       7717.2606       15.972776
       7718.3399       15.788855
       7719.4192       15.975690
       7720.4985       15.956118
       7721.5778       15.633045
       7722.6571       15.730559
       7723.7364       15.651877
       7724.8157       15.509178
       7725.8949       15.513717
       7726.9742       15.350274
       7728.0535       15.410603
       7729.1328       15.473311
       7730.2121       15.282920
       7731.2914       15.557862
       7732.3707       15.320775
       7733.4500       15.345562
       7734.5292       15.507210
       7735.6085       16.374795
       7736.6878       16.599276
       7737.7671       16.468664
       7738.8464       16.067499
       7739.9257       15.529890
       7741.0050       15.823629
       7742.0843       16.171812
       7743.1635       16.079815
       7744.2428       15.825227
       7745.3221       16.156426
       7746.4014       15.643319
       7747.4807       15.797227
       7748.5600       15.576326
       7749.6393       15.643239
       7750.7186       15.156809
       7751.7979       15.651150
       7752.8771       15.763094
       7753.9564       15.585567
       7755.0357       15.944035
       7756.1150       15.742431
       7757.1943       15.896836
       7758.2736       16.474699
       7759.3529       15.956908
       7760.4322       16.359272
       7761.5114       15.944775
       7762.5907       15.936536
       7763.6700       15.687927
       7764.7493       16.042680
       7765.8286       16.482932
       7766.9079       16.233253
       7767.9872       15.980003
       7769.0665       16.135880
       7770.1457       15.827146
       7771.2250       16.221900
       7772.3043       15.874933
       7773.3836       16.105348
       7774.4629       15.980299
       7775.5422       16.221581
       7776.6215       16.064629
       7777.7008       15.853163
       7778.7800       15.718871
       7779.8593       16.225668
       7780.9386       16.060298
       7782.0179       16.018538
       7783.0972       15.813030
       7784.1765       16.064579
       7785.2558       15.934567
       7786.3351       16.450486
       7787.4144       15.985544
       7788.4936       16.046805
       7789.5729       15.911111
       7790.6522       15.872893
       7791.7315       16.046777
       7792.8108       15.991546
       7793.8901       16.259164
       7794.9694       16.580610
       7796.0487       16.146178
       7797.1279       16.759655
       7798.2072       16.123001
       7799.2865       16.086071
       7800.3658       16.408250
       7801.4451       17.020104
       7802.5244       16.930158
       7803.6037       16.313852
       7804.6830       16.772445
       7805.7622       16.724114
       7806.8415       16.602978
       7807.9208       16.654285
       7809.0001       16.274215
       7810.0794       15.747657
       7811.1587       16.199562
       7812.2380       16.027160
       7813.3173       15.263163
       7814.3965       16.147046
       7815.4758       15.322979
       7816.5551       15.245778
       7817.6344       15.718130
       7818.7137       15.109820
       7819.7930       16.256196
       7820.8723       15.932662
       7821.9516       15.960619
       7823.0309       17.104213
       7824.1101       17.109044
       7825.1894       16.799329
       7826.2687       17.203063
       7827.3480       17.023918
       7828.4273       16.563536
       7829.5066       16.937189
       7830.5859       16.898268
       7831.6652       16.392678
       7832.7444       16.358503
       7833.8237       15.982164
       7834.9030       16.178179
       7835.9823       16.324257
       7837.0616       16.213230
       7838.1409       16.498614
       7839.2202       16.091194
       7840.2995       16.363805
       7841.3787       15.975859
       7842.4580       16.538109
       7843.5373       16.597037
       7844.6166       16.792118
       7845.6959       16.328775
       7846.7752       16.294169
       7847.8545       16.244922
       7848.9338       16.236018
       7850.0130       16.181863
       7851.0923       15.881832
       7852.1716       15.947823
       7853.2509       16.314360
       7854.3302       16.017343
       7855.4095       16.240567
       7856.4888       15.661883
       7857.5681       15.938592
       7858.6473       15.929721
       7859.7266       16.069771
       7860.8059       15.661889
       7861.8852       16.017080
       7862.9645       16.070062
       7864.0438       16.314926
       7865.1231       16.295005
       7866.2024       16.090565
       7867.2817       16.181670
       7868.3609       16.400029
       7869.4402       16.106410
       7870.5195       16.153460
       7871.5988       16.484378
       7872.6781       16.156454
       7873.7574       15.892436
       7874.8367       15.949847
       7875.9160       16.095382
       7876.9952       15.776673
       7878.0745       16.243932
       7879.1538       15.943773
       7880.2331       15.863916
       7881.3124       15.969289
       7882.3917       15.836891
       7883.4710       16.282816
       7884.5503       16.207828
       7885.6295       16.056976
       7886.7088       16.029733
       7887.7881       15.845459
       7888.8674       16.092033
       7889.9467       16.204207
       7891.0260       15.950363
       7892.1053       15.750910
       7893.1846       15.927551
       7894.2638       16.022182
       7895.3431       15.553778
       7896.4224       15.709523
       7897.5017       15.441603
       7898.5810       15.880873
       7899.6603       15.747220
       7900.7396       15.703710
       7901.8189       16.070276
       7902.8982       15.803356
       7903.9774       16.253196
       7905.0567       16.366125
       7906.1360       16.390526
       7907.2153       15.609402
       7908.2946       15.588554
       7909.3739       15.148336
       7910.4532       14.517719
       7911.5325       14.089824
       7912.6117       14.899660
       7913.6910       14.251779
       7914.7703       14.522384
       7915.8496       13.526724
       7916.9289       14.887439
       7918.0082       13.865003
       7919.0875       13.650955
       7920.1668       14.881048
       7921.2460       14.952215
       7922.3253       14.909225
       7923.4046       15.606487
       7924.4839       13.954996
       7925.5632       13.897070
       7926.6425       14.360747
       7927.7218       14.051299
       7928.8011       14.926959
       7929.8803       15.143923
       7930.9596       15.855304
       7932.0389       16.442635
       7933.1182       16.418892
       7934.1975       16.557227
       7935.2768       17.122578
       7936.3561       16.439526
       7937.4354       16.231142
       7938.5147       16.720410
       7939.5939       16.834310
       7940.6732       15.802887
       7941.7525       16.047175
       7942.8318       16.803761
       7943.9111       16.884157
       7944.9904       16.967834
       7946.0697       16.597676
       7947.1490       16.601823
       7948.2282       16.973384
       7949.3075       17.053583
       7950.3868       17.099751
       7951.4661       17.369370
       7952.5454       16.639250
       7953.6247       17.223879
       7954.7040       16.980113
       7955.7833       16.915749
       7956.8625       17.023235
       7957.9418       16.766429
       7959.0211       16.741462
       7960.1004       17.136858
       7961.1797       17.023632
       7962.2590       17.116273
       7963.3383       16.924413
       7964.4176       16.916505
       7965.4968       17.230838
       7966.5761       16.098211
       7967.6554       14.605042
       7968.7347       12.729048
       7969.8140       14.766162
       7970.8933       14.100830
       7971.9726       14.244979
       7973.0519       15.658807
       7974.1312       15.952105
       7975.2104       15.805486
       7976.2897       15.739364
       7977.3690       15.204861
       7978.4483       16.074671
       7979.5276       16.632045
       7980.6069       15.962592
       7981.6862       16.061963
       7982.7655       17.330135
       7983.8447       17.608096
       7984.9240       17.477327
       7986.0033       17.345549
       7987.0826       17.823641
       7988.1619       17.613471
       7989.2412       16.992289
       7990.3205       17.055101
       7991.3998       17.111419
       7992.4790       17.651972
       7993.5583       17.615564
       7994.6376       17.410633
       7995.7169       17.648382
       7996.7962       18.156564
       7997.8755       17.592582
       7998.9548       17.700212
       8000.0341       17.716994
       8001.1133       17.650978
       8002.1926       17.637360
       8003.2719       17.623572
       8004.3512       17.198717
       8005.4305       16.611358
       8006.5098       16.198116
       8007.5891       17.315454
       8008.6684       16.858522
       8009.7477       17.173028
       8010.8269       17.385230
       8011.9062       17.587299
       8012.9855       17.985254
       8014.0648       17.830273
       8015.1441       18.040889
       8016.2234       18.244799
       8017.3027       17.922027
       8018.3820       18.206995
       8019.4612       17.512181
       8020.5405       16.684082
       8021.6198       16.979277
       8022.6991       16.716923
       8023.7784       16.322645
       8024.8577       15.789701
       8025.9370       16.072453
       8027.0163       16.435537
       8028.0955       16.978391
       8029.1748       17.494207
       8030.2541       17.521662
       8031.3334       17.384794
       8032.4127       17.570310
       8033.4920       17.893027
       8034.5713       17.804863
       8035.6506       17.508234
       8036.7298       18.034230
       8037.8091       17.035347
       8038.8884       17.563223
       8039.9677       16.948361
       8041.0470       17.376759
       8042.1263       17.600934
       8043.2056       17.814885
       8044.2849       17.996393
       8045.3642       18.132178
       8046.4434       18.297477
       8047.5227       17.861681
       8048.6020       17.410773
       8049.6813       17.451042
       8050.7606       16.743662
       8051.8399       15.677375
       8052.9192       14.555508
       8053.9985       13.106259
       8055.0777       14.695057
       8056.1570       16.451862
       8057.2363       17.010524
       8058.3156       17.760480
       8059.3949       17.951787
       8060.4742       18.116286
       8061.5535       17.892425
       8062.6328       17.912587
       8063.7120       18.016093
       8064.7913       18.012272
       8065.8706       18.136343
       8066.9499       17.764821
       8068.0292       17.691643
       8069.1085       17.926772
       8070.1878       17.987653
       8071.2671       17.902956
       8072.3463       17.458627
       8073.4256       17.301151
       8074.5049       17.031899
       8075.5842       16.944756
       8076.6635       17.194215
       8077.7428       17.275547
       8078.8221       17.427125
       8079.9014       17.545904
       8080.9806       17.620754
       8082.0599       17.457821
       8083.1392       17.657927
       8084.2185       17.156382
       8085.2978       15.662435
       8086.3771       15.896487
       8087.4564       15.979903
       8088.5357       15.879122
       8089.6150       15.595177
       8090.6942       16.161222
       8091.7735       16.224517
       8092.8528       16.890090
       8093.9321       17.571777
       8095.0114       17.388704
       8096.0907       17.427262
       8097.1700       17.358876
       8098.2493       17.435491
       8099.3285       17.754477
       8100.4078       17.766292
       8101.4871       17.782161
       8102.5664       17.888375
       8103.6457       18.071645
       8104.7250       18.190370
       8105.8043       17.941241
       8106.8836       17.695237
       8107.9628       18.015151
       8109.0421       17.898984
       8110.1214       17.807364
       8111.2007       17.931623
       8112.2800       17.364127
       8113.3593       17.454475
       8114.4386       16.945967
       8115.5179       16.847347
       8116.5971       16.726798
       8117.6764       16.133365
       8118.7557       16.870258
       8119.8350       17.179484
       8120.9143       17.818083
       8121.9936       18.435719
       8123.0729       18.624396
       8124.1522       17.365415
       8125.2315       17.127417
       8126.3107       17.777218
       8127.3900       16.336816
       8128.4693       17.250359
       8129.5486       16.849932
       8130.6279       17.757685
       8131.7072       17.797998
       8132.7865       18.068629
       8133.8658       18.522187
       8134.9450       18.207220
       8136.0243       18.196453
       8137.1036       17.945764
       8138.1829       18.238510
       8139.2622       17.809376
       8140.3415       17.559742
       8141.4208       17.857174
       8142.5001       18.378740
       8143.5793       18.302036
       8144.6586       18.271912
       8145.7379       18.177885
       8146.8172       18.270414
       8147.8965       18.383159
       8148.9758       18.274983
       8150.0551       18.230969
       8151.1344       18.672192
       8152.2136       18.881320
       8153.2929       18.616295
       8154.3722       18.927306
       8155.4515       18.801435
       8156.5308       18.761061
       8157.6101       19.142617
       8158.6894       18.565839
       8159.7687       18.101813
       8160.8480       18.435571
       8161.9272       18.557878
       8163.0065       18.087748
       8164.0858       18.139534
       8165.1651       18.109296
       8166.2444       17.929821
       8167.3237       18.550371
       8168.4030       18.940488
       8169.4823       18.951769
       8170.5615       18.429758
       8171.6408       18.159342
       8172.7201       18.669560
       8173.7994       17.684386
       8174.8787       17.886752
       8175.9580       18.596239
       8177.0373       18.387372
       8178.1166       18.181181
       8179.1958       18.631456
       8180.2751       18.037895
       8181.3544       17.985213
       8182.4337       18.066740
       8183.5130       18.211448
       8184.5923       18.365063
       8185.6716       17.961871
       8186.7509       18.205982
       8187.8301       18.444385
       8188.9094       17.891827
       8189.9887       18.383520
       8191.0680       18.507454
       8192.1473       18.659386
       8193.2266       17.863413
       8194.3059       17.802527
       8195.3852       18.026954
       8196.4645       17.618012
       8197.5437       17.447910
       8198.6230       17.697553
       8199.7023       17.607000
       8200.7816       18.048316
       8201.8609       17.881707
       8202.9402       17.963121
       8204.0195       17.821601
       8205.0988       18.069297
       8206.1780       18.330365
       8207.2573       18.613671
       8208.3366       18.414869
       8209.4159       18.598291
       8210.4952       18.851932
       8211.5745       18.938057
       8212.6538       18.290116
       8213.7331       18.076226
       8214.8123       18.662246
       8215.8916       18.517603
       8216.9709       18.596280
       8218.0502       17.893248
       8219.1295       18.489209
       8220.2088       19.141963
       8221.2881       18.078891
       8222.3674       17.912253
       8223.4466       18.644152
       8224.5259       19.065923
       8225.6052       19.086493
       8226.6845       19.336985
       8227.7638       19.026933
       8228.8431       19.149829
       8229.9224       18.622021
       8231.0017       18.235955
       8232.0810       18.514448
       8233.1602       18.153124
       8234.2395       18.505853
       8235.3188       18.875330
       8236.3981       19.050836
       8237.4774       19.423228
       8238.5567       19.375592
       8239.6360       19.158436
       8240.7153       18.683961
       8241.7945       18.695874
       8242.8738       18.507373
       8243.9531       18.206848
       8245.0324       18.096214
       8246.1117       18.102764
       8247.1910       18.142569
       8248.2703       18.082554
       8249.3496       18.668493
       8250.4288       18.718469
       8251.5081       18.999009
       8252.5874       19.019453
       8253.6667       19.394156
       8254.7460       19.392424
       8255.8253       18.945484
       8256.9046       19.279146
       8257.9839       19.154556
       8259.0631       18.905948
       8260.1424       19.252455
       8261.2217       18.964271
       8262.3010       18.279211
       8263.3803       17.735744
       8264.4596       17.617469
       8265.5389       17.771831
       8266.6182       17.922067
       8267.6975       17.283242
       8268.7767       17.858587
       8269.8560       18.623263
       8270.9353       18.949616
       8272.0146       18.857086
       8273.0939       18.904332
       8274.1732       18.376163
       8275.2525       18.643485
       8276.3318       18.998482
       8277.4110       18.910143
       8278.4903       18.663147
       8279.5696       18.355431
       8280.6489       18.192314
       8281.7282       17.574573
       8282.8075       17.517369
       8283.8868       17.430713
       8284.9661       17.578161
       8286.0453       18.127353
       8287.1246       18.373345
       8288.2039       18.639751
       8289.2832       18.468383
       8290.3625       18.658870
       8291.4418       18.777442
       8292.5211       19.115987
       8293.6004       18.719323
       8294.6796       19.839921
       8295.7589       19.597442
       8296.8382       19.633243
       8297.9175       19.335658
       8298.9968       19.041228
       8300.0761       19.537614
       8301.1554       19.437272
       8302.2347       18.888389
       8303.3139       19.014828
       8304.3932       18.672685
       8305.4725       19.002973
       8306.5518       19.109533
       8307.6311       18.732749
       8308.7104       19.136524
       8309.7897       18.919570
       8310.8690       19.140451
       8311.9483       18.979799
       8313.0275       18.966918
       8314.1068       19.450459
       8315.1861       19.093511
       8316.2654       19.480682
       8317.3447       18.843638
       8318.4240       18.835253
       8319.5033       18.985959
       8320.5826       18.769805
       8321.6618       19.410491
       8322.7411       19.681367
       8323.8204       18.908769
       8324.8997       19.616666
       8325.9790       19.423904
       8327.0583       19.468825
       8328.1376       19.701856
       8329.2169       19.191506
       8330.2961       19.127607
       8331.3754       19.768482
