# wavelength flux
       2510.8809     0.062134476
       2511.7658     0.018083789
       2512.6507     0.038677724
       2513.5356     0.026537054
       2514.4204     0.067796770
       2515.3053    -0.013790964
       2516.1902    -0.079542395
       2517.0750     0.017425649
       2517.9599    0.0066628279
       2518.8448     0.054366262
       2519.7297     0.036823439
       2520.6145   -0.0072420871
       2521.4994    -0.015505070
       2522.3843     0.047913096
       2523.2691     0.030309203
       2524.1540    -0.015463668
       2525.0389     0.058001194
       2525.9237     0.047353870
       2526.8086     0.069318184
       2527.6935      0.10703627
       2528.5784     0.058149154
       2529.4632    -0.019979649
       2530.3481    -0.048074804
       2531.2330    -0.040303700
       2532.1178    -0.040870562
       2533.0027   -0.0081629846
       2533.8876     0.077088807
       2534.7724     0.029894834
       2535.6573   -0.0049920004
       2536.5422    -0.030381778
       2537.4271    -0.038270888
       2538.3119    -0.030407504
       2539.1968   -0.0093689450
       2540.0817    -0.034169446
       2540.9665    -0.058647600
       2541.8514   -0.0014597607
       2542.7363     0.029514568
       2543.6212     0.046485577
       2544.5060     0.030717749
       2545.3909    -0.032907196
       2546.2758     0.025705716
       2547.1606    -0.035435030
       2548.0455    0.0054289647
       2548.9304     0.090364278
       2549.8152     0.048043198
       2550.7001     0.027328996
       2551.5850     0.045098560
       2552.4699     0.071598985
       2553.3547     0.019687941
       2554.2396   -0.0014650532
       2555.1245    -0.095396928
       2556.0093     -0.12134335
       2556.8942     0.014812324
       2557.7791    -0.019026673
       2558.6640     0.010133439
       2559.5488     0.034828839
       2560.4337     0.027935489
       2561.3186     0.081087804
       2562.2034     0.035014032
       2563.0883   -0.0048519067
       2563.9732    -0.013919598
       2564.8580    -0.029388221
       2565.7429     0.031279707
       2566.6278    0.0059001423
       2567.5127     0.055772633
       2568.3975   -0.0068612114
       2569.2824    -0.046409775
       2570.1673     0.011518777
       2571.0521    -0.015760689
       2571.9370    -0.013564940
       2572.8219     0.036449899
       2573.7067     0.013527314
       2574.5916    0.0087270501
       2575.4765   -0.0084985608
       2576.3614     0.025332564
       2577.2462    0.0059655519
       2578.1311   -0.0011827368
       2579.0160     0.015162195
       2579.9008     0.047491623
       2580.7857     0.052305981
       2581.6706     0.023353441
       2582.5555   -0.0082858103
       2583.4403    -0.011095298
       2584.3252     0.055646902
       2585.2101    0.0031589389
       2586.0949    -0.034313982
       2586.9798    -0.031645816
       2587.8647     0.011268979
       2588.7495     0.052198847
       2589.6344     0.043502824
       2590.5193     0.011756322
       2591.4042   -0.0065811080
       2592.2890    0.0070434298
       2593.1739     0.034328522
       2594.0588     0.038257766
       2594.9436    0.0097220239
       2595.8285    -0.038507339
       2596.7134   -0.0055617121
       2597.5982    0.0022227203
       2598.4831     0.014996590
       2599.3680     0.017653730
       2600.2529     0.046193243
       2601.1377     0.028256454
       2602.0226    -0.030749601
       2602.9075    -0.010457952
       2603.7923    -0.017678629
       2604.6772     0.043468634
       2605.5621     0.037882371
       2606.4470    -0.017529369
       2607.3318     0.031094100
       2608.2167     0.034976468
       2609.1016     0.021835841
       2609.9864    0.0064239625
       2610.8713     0.023346080
       2611.7562   -0.0087009728
       2612.6410     0.033530077
       2613.5259     0.024430593
       2614.4108     0.018678632
       2615.2957     0.043563134
       2616.1805    0.0065089759
       2617.0654    -0.046425230
       2617.9503     0.040976305
       2618.8351     0.031442754
       2619.7200    -0.024480010
       2620.6049   -0.0072463709
       2621.4898     0.033473998
       2622.3746     0.013529023
       2623.2595     0.080215654
       2624.1444     0.025904717
       2625.0292     0.023060294
       2625.9141     0.020791669
       2626.7990    -0.028465594
       2627.6838     0.025498996
       2628.5687    0.0037135861
       2629.4536     0.060689241
       2630.3385     0.020648480
       2631.2233    0.0036671233
       2632.1082    0.0088753222
       2632.9931     0.033614281
       2633.8779     0.019907618
       2634.7628     0.038549376
       2635.6477    -0.042241677
       2636.5325     0.018565035
       2637.4174     0.032943813
       2638.3023    -0.011630167
       2639.1872   -0.0012130438
       2640.0720   -0.0010828461
       2640.9569     0.020520566
       2641.8418     0.031754109
       2642.7266   -0.0037000317
       2643.6115    0.0059958018
       2644.4964   -0.0023728896
       2645.3813     0.026931490
       2646.2661     0.025611759
       2647.1510     0.050438447
       2648.0359     0.055291043
       2648.9207     0.040030923
       2649.8056     0.028155446
       2650.6905    -0.015599335
       2651.5753    0.0074677799
       2652.4602     0.012923510
       2653.3451     0.075688064
       2654.2300     0.058079005
       2655.1148    0.0099497089
       2655.9997     0.060102085
       2656.8846     0.040244662
       2657.7694     0.015160088
       2658.6543    0.0078903942
       2659.5392     0.015202673
       2660.4241     0.058945711
       2661.3089     0.044163717
       2662.1938     0.027111070
       2663.0787     0.028393080
       2663.9635     0.019655156
       2664.8484    -0.011289371
       2665.7333    0.0078180381
       2666.6181     0.011253189
       2667.5030     0.025526157
       2668.3879    -0.013898896
       2669.2728    -0.014753523
       2670.1576    -0.028287468
       2671.0425    -0.014857413
       2671.9274    0.0068646270
       2672.8122    -0.037274709
       2673.6971    0.0091419400
       2674.5820     0.017572863
       2675.4668    -0.024401458
       2676.3517     0.010412805
       2677.2366     0.024216306
       2678.1215     0.048422382
       2679.0063     0.012153943
       2679.8912     0.024708245
       2680.7761     0.015098039
       2681.6609     0.043013055
       2682.5458    -0.033519506
       2683.4307    0.0026193138
       2684.3156     0.036390465
       2685.2004     0.031705413
       2686.0853     0.028688082
       2686.9702     0.041297232
       2687.8550     0.025351252
       2688.7399   -0.0098977234
       2689.6248     0.015955574
       2690.5096     0.050211705
       2691.3945     0.035585797
       2692.2794     0.018224833
       2693.1643     0.031239261
       2694.0491     0.028486769
       2694.9340   -0.0071147701
       2695.8189     0.028967842
       2696.7037     0.024022936
       2697.5886    0.0013343688
       2698.4735    0.0014205204
       2699.3584   -0.0036735374
       2700.2432     0.052557604
       2701.1281     0.045934613
       2702.0130     0.040346091
       2702.8978     0.062937822
       2703.7827   -0.0061340704
       2704.6676    0.0050968850
       2705.5524    0.0091861119
       2706.4373     0.048636012
       2707.3222    0.0045936949
       2708.2071     0.051098724
       2709.0919     0.021556596
       2709.9768    -0.034549705
       2710.8617    0.0056428970
       2711.7465     0.012020191
       2712.6314     0.042705277
       2713.5163     0.014423711
       2714.4011     0.015412774
       2715.2860     0.046807358
       2716.1709     0.014942358
       2717.0558    -0.021382836
       2717.9406     0.023215410
       2718.8255     0.011116663
       2719.7104    0.0054658360
       2720.5952     0.044445492
       2721.4801   -0.0097452777
       2722.3650    0.0077358588
       2723.2499     0.033215975
       2724.1347    -0.013350459
       2725.0196     0.052154539
       2725.9045     0.081848748
       2726.7893     0.014583667
       2727.6742    -0.026626143
       2728.5591   0.00035972580
       2729.4439    0.0049420616
       2730.3288     0.014049961
       2731.2137     0.012138378
       2732.0986     0.042998149
       2732.9834     0.025134282
       2733.8683     0.018215530
       2734.7532     0.041267887
       2735.6380     0.037957032
       2736.5229     0.055346820
       2737.4078     0.032307169
       2738.2927     0.036428110
       2739.1775     0.012959764
       2740.0624     0.041045834
       2740.9473    -0.015005532
       2741.8321    0.0090714262
       2742.7170     0.011420638
       2743.6019    -0.026348008
       2744.4867    -0.013950624
       2745.3716    0.0045577105
       2746.2565     0.014334004
       2747.1414     0.014887079
       2748.0262     0.013198769
       2748.9111    -0.011940836
       2749.7960     0.020583587
       2750.6808     0.017017761
       2751.5657    -0.010743902
       2752.4506   -0.0054160602
       2753.3354    0.0064927733
       2754.2203   -0.0047657556
       2755.1052  -0.00058831049
       2755.9901   -0.0081482415
       2756.8749     0.034235374
       2757.7598     0.031605987
       2758.6447    -0.013238235
       2759.5295   -0.0043058355
       2760.4144     0.051561439
       2761.2993     0.032014530
       2762.1842     0.014786354
       2763.0690   -0.0030650794
       2763.9539    0.0077699448
       2764.8388   -0.0074123880
       2765.7236     0.013843316
       2766.6085   -0.0069408654
       2767.4934    0.0061545427
       2768.3782     0.011812692
       2769.2631     0.011851044
       2770.1480    0.0063833558
       2771.0329    -0.021173377
       2771.9177     0.012944960
       2772.8026     0.015302925
       2773.6875     0.040757542
       2774.5723     0.037718929
       2775.4572   -0.0034518681
       2776.3421   -0.0071635430
       2777.2270    0.0023031556
       2778.1118    0.0058443788
       2778.9967    -0.024927189
       2779.8816     0.013410407
       2780.7664    0.0057924050
       2781.6513    0.0021321210
       2782.5362   -0.0053893213
       2783.4210    -0.019201513
       2784.3059    0.0099334456
       2785.1908    -0.017468871
       2786.0757   -0.0066394802
       2786.9605     0.017449534
       2787.8454   0.00067320443
       2788.7303     0.015473075
       2789.6151     0.035279829
       2790.5000    -0.012189104
       2791.3849     0.010887088
       2792.2697     0.012367085
       2793.1546   -0.0094931747
       2794.0395    -0.019997447
       2794.9244     0.037048658
       2795.8092     0.038380103
       2796.6941     0.010861144
       2797.5790     0.018114456
       2798.4638     0.015356849
       2799.3487   0.00053490072
       2800.2336     0.060379955
       2801.1185    0.0075813764
       2802.0033     0.026897497
       2802.8882     0.042302518
       2803.7731     0.010246175
       2804.6579    0.0054218561
       2805.5428     0.028224477
       2806.4277    -0.010155048
       2807.3125     0.051964065
       2808.1974     0.047175437
       2809.0823     0.026232801
       2809.9672   -0.0041916691
       2810.8520     0.050261732
       2811.7369     0.032920799
       2812.6218     0.043290895
       2813.5066     0.032370218
       2814.3915     0.035015364
       2815.2764     0.014179249
       2816.1613     0.043187339
       2817.0461     0.053696682
       2817.9310     0.036497490
       2818.8159     0.033000050
       2819.7007     0.053290683
       2820.5856     0.041527258
       2821.4705     0.058662720
       2822.3553     0.025018424
       2823.2402    0.0094651588
       2824.1251     0.017632727
       2825.0100     0.033981340
       2825.8948     0.035894533
       2826.7797   -0.0035027049
       2827.6646     0.020967827
       2828.5494     0.020486094
       2829.4343     0.042379227
       2830.3192     0.022885219
       2831.2040     0.031222777
       2832.0889     0.051719901
       2832.9738     0.043506051
       2833.8587     0.015001713
       2834.7435     0.032436781
       2835.6284     0.015944520
       2836.5133     0.017272621
       2837.3981    -0.025937338
       2838.2830    -0.019492381
       2839.1679    0.0056502697
       2840.0528     0.018775091
       2840.9376   -0.0012405019
       2841.8225     0.017486290
       2842.7074    -0.014798418
       2843.5922     0.046173874
       2844.4771    0.0092221679
       2845.3620     0.031305059
       2846.2468     0.015311092
       2847.1317     0.016787460
       2848.0166     0.041331179
       2848.9015    0.0088859071
       2849.7863    0.0071380033
       2850.6712    -0.010587485
       2851.5561     0.017776289
       2852.4409    0.0068460471
       2853.3258     0.077994780
       2854.2107     0.093636377
       2855.0956     0.011390975
       2855.9804     0.017532656
       2856.8653     0.035269882
       2857.7502     0.061041331
       2858.6350     0.037522235
       2859.5199     0.013453365
       2860.4048  -0.00058682398
       2861.2896     0.042329701
       2862.1745     0.028221556
       2863.0594    -0.010993148
       2863.9443     0.029799469
       2864.8291     0.025667572
       2865.7140     0.051893756
       2866.5989     0.030891367
       2867.4837     0.028004270
       2868.3686     0.051710524
       2869.2535     0.051283050
       2870.1383     0.031636527
       2871.0232     0.035619105
       2871.9081     0.034332482
       2872.7930    0.0075692550
       2873.6778    -0.015356380
       2874.5627     0.013550128
       2875.4476     0.022297371
       2876.3324     0.037001526
       2877.2173     0.034728564
       2878.1022     0.045717042
       2878.9871     0.047784123
       2879.8719     0.029737315
       2880.7568     0.016425034
       2881.6417     0.025351259
       2882.5265     0.023263534
       2883.4114   -0.0065186463
       2884.2963     0.039481841
       2885.1811     0.079345164
       2886.0660     0.022915360
       2886.9509     0.038589552
       2887.8358     0.042964148
       2888.7206     0.058543411
       2889.6055     0.024047067
       2890.4904     0.039457371
       2891.3752     0.019458963
       2892.2601     0.015941023
       2893.1450     0.016101735
       2894.0299     0.034542423
       2894.9147     0.027894268
       2895.7996     0.019388326
       2896.6845     0.051286133
       2897.5693     0.028526437
       2898.4542     0.032875574
       2899.3391     0.038710232
       2900.2239  -0.00029028208
       2901.1088     0.062322128
       2901.9937     0.029939424
       2902.8786    -0.016348997
       2903.7634     0.018947537
       2904.6483     0.021170536
       2905.5332     0.042055831
       2906.4180     0.037657205
       2907.3029   0.00085666076
       2908.1878     0.026300409
       2909.0726     0.047498682
       2909.9575     0.064756683
       2910.8424     0.057750616
       2911.7273     0.038135749
       2912.6121     0.023548419
       2913.4970     0.025593816
       2914.3819   -0.0028437515
       2915.2667     0.034164965
       2916.1516     0.028778346
       2917.0365     0.062085305
       2917.9214     0.054251120
       2918.8062     0.035218562
       2919.6911     0.036502556
       2920.5760     0.039375002
       2921.4608     0.034317099
       2922.3457     0.035721356
       2923.2306     0.051050396
       2924.1154     0.072239352
       2925.0003     0.051029901
       2925.8852     0.016234329
       2926.7701     0.056107218
       2927.6549   0.00032241955
       2928.5398    0.0069859111
       2929.4247     0.026701991
       2930.3095     0.068489062
       2931.1944     0.045635139
       2932.0793     0.050345289
       2932.9642     0.026393861
       2933.8490     0.026767336
       2934.7339     0.046570073
       2935.6188     0.031812238
       2936.5036     0.039375797
       2937.3885     0.032525485
       2938.2734     0.044098080
       2939.1582     0.015762674
       2940.0431     0.024562053
       2940.9280     0.040732960
       2941.8129     0.019198973
       2942.6977     0.023213370
       2943.5826     0.030179630
       2944.4675     0.047740546
       2945.3523     0.031577507
       2946.2372     0.016523955
       2947.1221     0.017570879
       2948.0069     0.038573365
       2948.8918     0.061974091
       2949.7767     0.042737022
       2950.6616     0.038270760
       2951.5464     0.037642106
       2952.4313     0.033512763
       2953.3162     0.019189091
       2954.2010     0.040973608
       2955.0859     0.056527924
       2955.9708     0.057361491
       2956.8557     0.040469817
       2957.7405     0.017056314
       2958.6254     0.048750351
       2959.5103     0.018078877
       2960.3951     0.039319158
       2961.2800     0.047096389
       2962.1649     0.014636222
       2963.0497    0.0039661832
       2963.9346     0.018855752
       2964.8195     0.016182004
       2965.7044     0.035027285
       2966.5892     0.015803088
       2967.4741    0.0057982711
       2968.3590     0.018252679
       2969.2438     0.022112236
       2970.1287     0.059224947
       2971.0136     0.053754510
       2971.8985     0.049829681
       2972.7833     0.035447111
       2973.6682     0.049927114
       2974.5531     0.062812412
       2975.4379     0.056932261
       2976.3228     0.024339813
       2977.2077     0.043138512
       2978.0925    0.0087359700
       2978.9774     0.036575140
       2979.8623     0.050527700
       2980.7472     0.033519099
       2981.6320     0.040648725
       2982.5169     0.046701749
       2983.4018     0.026057790
       2984.2866    0.0065014976
       2985.1715     0.019008685
       2986.0564     0.039641902
       2986.9412     0.041771630
       2987.8261     0.010782057
       2988.7110     0.033374162
       2989.5959     0.018924375
       2990.4807     0.023477098
       2991.3656     0.078263296
       2992.2505     0.058128799
       2993.1353     0.020179827
       2994.0202     0.016506746
       2994.9051     0.024491011
       2995.7900     0.057314831
       2996.6748   -0.0059128269
       2997.5597     0.010030530
       2998.4446     0.063254964
       2999.3294     0.024179371
       3000.2143    0.0037281050
       3001.0992     0.063342287
       3001.9840     0.026553208
       3002.8689     0.049041304
       3003.7538     0.066426062
       3004.6387     0.055803700
       3005.5235     0.050549680
       3006.4084     0.031977750
       3007.2933     0.042537289
       3008.1781     0.040139791
       3009.0630     0.033360822
       3009.9479     0.039428772
       3010.8328     0.022446959
       3011.7176     0.032563731
       3012.6025     0.056337331
       3013.4874     0.050984985
       3014.3722     0.041780113
       3015.2571     0.045405946
       3016.1420     0.023887443
       3017.0268     0.037100405
       3017.9117     0.038412111
       3018.7966     0.032547026
       3019.6815     0.039277092
       3020.5663     0.043599370
       3021.4512     0.058109797
       3022.3361     0.034194650
       3023.2209     0.055886839
       3024.1058     0.071036865
       3024.9907     0.038093017
       3025.8755    0.0034588393
       3026.7604     0.055794338
       3027.6453     0.032735359
       3028.5302     0.034099874
       3029.4150     0.064030685
       3030.2999     0.058403017
       3031.1848     0.015241975
       3032.0696     0.028517493
       3032.9545     0.035005068
       3033.8394     0.011042079
       3034.7243     0.046634721
       3035.6091     0.058801551
       3036.4940     0.028417310
       3037.3789     0.047869587
       3038.2637     0.054033857
       3039.1486     0.052714352
       3040.0335     0.049526533
       3040.9183     0.030261200
       3041.8032     0.016805100
       3042.6881     0.051891203
       3043.5730     0.042373106
       3044.4578     0.039668475
       3045.3427     0.068917811
       3046.2276     0.037937101
       3047.1124     0.043754917
       3047.9973     0.037037554
       3048.8822     0.048958608
       3049.7671     0.062392341
       3050.6519     0.056236087
       3051.5368     0.027831440
       3052.4217     0.059496150
       3053.3065     0.061402295
       3054.1914     0.045179883
       3055.0763     0.029633110
       3055.9611     0.031902065
       3056.8460     0.059313738
       3057.7309     0.050385297
       3058.6158     0.023566377
       3059.5006     0.049174297
       3060.3855   7.9163269e-05
       3061.2704     0.042300805
       3062.1552     0.048453351
       3063.0401     0.062187060
       3063.9250     0.070699245
       3064.8098     0.052072831
       3065.6947     0.049255364
       3066.5796     0.065963111
       3067.4645     0.071333096
       3068.3493     0.059154490
       3069.2342     0.021062464
       3070.1191     0.046620376
       3071.0039     0.073525344
       3071.8888     0.012887697
       3072.7737     0.043913224
       3073.6586     0.046393840
       3074.5434     0.057463584
       3075.4283     0.075965800
       3076.3132     0.038776068
       3077.1980     0.035755616
       3078.0829     0.026750123
       3078.9678     0.044031907
       3079.8526     0.016620418
       3080.7375     0.049368402
       3081.6224     0.058528082
       3082.5073     0.028233800
       3083.3921     0.052460930
       3084.2770     0.044703340
       3085.1619     0.047708792
       3086.0467     0.050142258
       3086.9316     0.056304411
       3087.8165     0.036834326
       3088.7014     0.029863049
       3089.5862     0.048492615
       3090.4711     0.056289797
       3091.3560     0.044380699
       3092.2408     0.036810799
       3093.1257     0.040429360
       3094.0106     0.029687411
       3094.8954     0.058748657
       3095.7803     0.051671858
       3096.6652     0.035811959
       3097.5501  -0.00041759699
       3098.4349     0.033952882
       3099.3198     0.083994387
       3100.2047     0.015721087
       3101.0895     0.010608592
       3101.9744     0.053632968
       3102.8593     0.028184310
       3103.7441     0.038043153
       3104.6290     0.038282512
       3105.5139     0.029913645
       3106.3988     0.063556425
       3107.2836     0.062373957
       3108.1685     0.061478147
       3109.0534     0.035763204
       3109.9382     0.053903073
       3110.8231     0.055146138
       3111.7080     0.081249645
       3112.5929     0.044113353
       3113.4777     0.019166524
       3114.3626     0.062030987
       3115.2475     0.072436356
       3116.1323     0.043635117
       3117.0172     0.054241037
       3117.9021     0.064998470
       3118.7869     0.039260467
       3119.6718     0.055445462
       3120.5567     0.049154475
       3121.4416     0.060160251
       3122.3264     0.039508839
       3123.2113     0.035532102
       3124.0962     0.054448746
       3124.9810     0.044848294
       3125.8659     0.047791104
       3126.7508     0.063774367
       3127.6357     0.040317776
       3128.5205     0.038054884
       3129.4054     0.046261154
       3130.2903     0.059061217
       3131.1751     0.035558196
       3132.0600     0.045412990
       3132.9449     0.030604596
       3133.8297     0.062295511
       3134.7146     0.038158076
       3135.5995     0.045451928
       3136.4844     0.066555125
       3137.3692     0.023972572
       3138.2541     0.036452744
       3139.1390     0.061987228
       3140.0238     0.050513338
       3140.9087     0.061942826
       3141.7936     0.078641717
       3142.6784     0.054417375
       3143.5633     0.043694063
       3144.4482     0.049066093
       3145.3331     0.072743226
       3146.2179     0.057336391
       3147.1028     0.022407468
       3147.9877     0.046272486
       3148.8725     0.057744622
       3149.7574     0.067185727
       3150.6423     0.034817666
       3151.5272     0.067482065
       3152.4120     0.093186909
       3153.2969     0.058517476
       3154.1818     0.033978765
       3155.0666     0.051138702
       3155.9515     0.029711448
       3156.8364     0.058316499
       3157.7212     0.044182584
       3158.6061     0.031906757
       3159.4910     0.039603667
       3160.3759     0.061844971
       3161.2607     0.072082041
       3162.1456     0.022419312
       3163.0305     0.033211384
       3163.9153     0.029616248
       3164.8002     0.041202602
       3165.6851     0.033666855
       3166.5700     0.050606071
       3167.4548     0.046559232
       3168.3397     0.064831373
       3169.2246     0.081075361
       3170.1094     0.062636579
       3170.9943     0.070552541
       3171.8792     0.097222676
       3172.7640      0.10621595
       3173.6489      0.11791378
       3174.5338      0.10299272
       3175.4187      0.10935318
       3176.3035     0.072016451
       3177.1884     0.080702973
       3178.0733     0.043777717
       3178.9581     0.054925854
       3179.8430     0.059392520
       3180.7279     0.048088309
       3181.6127     0.057982507
       3182.4976     0.038850780
       3183.3825     0.035516111
       3184.2674     0.034398054
       3185.1522     0.066685924
       3186.0371     0.057063925
       3186.9220     0.056491008
       3187.8068     0.050359283
       3188.6917     0.071279590
       3189.5766     0.045884496
       3190.4615     0.039674949
       3191.3463     0.063708318
       3192.2312     0.054015644
       3193.1161     0.069321165
       3194.0009     0.055021706
       3194.8858     0.047154857
       3195.7707     0.041300308
       3196.6555     0.040642763
       3197.5404     0.026130036
       3198.4253     0.059665362
       3199.3102     0.027968667
       3200.1950     0.053497667
       3201.0799     0.047582647
       3201.9648     0.073482634
       3202.8496     0.069635983
       3203.7345     0.077510927
       3204.6194     0.070227673
       3205.5043     0.069694897
       3206.3891     0.034107830
       3207.2740     0.053514468
       3208.1589     0.070451400
       3209.0437     0.075896811
       3209.9286     0.081051530
       3210.8135     0.047026206
       3211.6983     0.079683352
       3212.5832     0.056391947
       3213.4681     0.054499995
       3214.3530     0.032824056
       3215.2378     0.051119530
       3216.1227     0.076920711
       3217.0076     0.047338958
       3217.8924     0.067282919
       3218.7773     0.077478882
       3219.6622     0.057203334
       3220.5470     0.048006139
       3221.4319     0.046614166
       3222.3168     0.082726692
       3223.2017     0.039184914
       3224.0865     0.050819192
       3224.9714     0.066462493
       3225.8563     0.060000684
       3226.7411     0.043169068
       3227.6260     0.068992516
       3228.5109     0.060358510
       3229.3958     0.049625548
       3230.2806     0.042639014
       3231.1655     0.058681633
       3232.0504     0.044135613
       3232.9352     0.058508473
       3233.8201     0.031688923
       3234.7050     0.046415123
       3235.5898     0.050167813
       3236.4747     0.055235737
       3237.3596     0.066983353
       3238.2445     0.049039972
       3239.1293     0.028671070
       3240.0142     0.072098240
       3240.8991     0.041103811
       3241.7839     0.065107113
       3242.6688     0.073786340
       3243.5537     0.056741136
       3244.4386     0.060196832
       3245.3234     0.060218479
       3246.2083     0.047340752
       3247.0932     0.071207741
       3247.9780     0.057267583
       3248.8629     0.080978409
       3249.7478     0.074808399
       3250.6326     0.036669490
       3251.5175     0.059051605
       3252.4024     0.060295047
       3253.2873     0.071264251
       3254.1721     0.054427066
       3255.0570     0.066388588
       3255.9419     0.057000979
       3256.8267     0.087196938
       3257.7116     0.065401363
       3258.5965     0.076220871
       3259.4813     0.068863407
       3260.3662     0.093260886
       3261.2511     0.081121296
       3262.1360     0.060376456
       3263.0208     0.061202050
       3263.9057     0.070888312
       3264.7906     0.074185321
       3265.6754     0.072640657
       3266.5603     0.062938019
       3267.4452     0.068324190
       3268.3301     0.062540678
       3269.2149     0.059622602
       3270.0998     0.076999640
       3270.9847      0.10296309
       3271.8695     0.062601480
       3272.7544     0.036659656
       3273.6393     0.078020980
       3274.5241     0.073267358
       3275.4090     0.067684208
       3276.2939     0.061126714
       3277.1788     0.068487832
       3278.0636     0.077081852
       3278.9485     0.046360250
       3279.8334     0.090859102
       3280.7182     0.089015546
       3281.6031     0.060024893
       3282.4880     0.066295412
       3283.3729     0.044809013
       3284.2577     0.082009680
       3285.1426     0.087501167
       3286.0275     0.085284855
       3286.9123     0.048293726
       3287.7972     0.073785856
       3288.6821     0.046792046
       3289.5669     0.079606569
       3290.4518     0.073767092
       3291.3367     0.046891079
       3292.2216     0.062815205
       3293.1064     0.089082080
       3293.9913     0.094184809
       3294.8762     0.055315382
       3295.7610     0.089295994
       3296.6459     0.071841101
       3297.5308     0.092357740
       3298.4156      0.10510706
       3299.3005     0.086023784
       3300.1854     0.085746357
       3301.0703     0.093478891
       3301.9551      0.12086281
       3302.8400      0.10563855
       3303.7249     0.089438579
       3304.6097     0.093405890
       3305.4946     0.077735960
       3306.3795      0.12252755
       3307.2644     0.092404867
       3308.1492     0.055050510
       3309.0341     0.082705347
       3309.9190     0.081562952
       3310.8038     0.079170110
       3311.6887     0.075378803
       3312.5736     0.096309773
       3313.4584     0.079684982
       3314.3433     0.096781133
       3315.2282      0.10856913
       3316.1131     0.081790508
       3316.9979     0.087889135
       3317.8828     0.071079132
       3318.7677     0.098457104
       3319.6525     0.080070279
       3320.5374     0.095034521
       3321.4223     0.090196619
       3322.3072     0.072881499
       3323.1920     0.052746697
       3324.0769     0.098270171
       3324.9618     0.070831293
       3325.8466     0.049881786
       3326.7315     0.088073203
       3327.6164     0.059157113
       3328.5012     0.078742403
       3329.3861     0.093088885
       3330.2710     0.083206826
       3331.1559     0.096297381
       3332.0407     0.078307489
       3332.9256     0.081035522
       3333.8105     0.061065474
       3334.6953     0.057548290
       3335.5802     0.093238362
       3336.4651     0.094497429
       3337.3499     0.086175160
       3338.2348     0.070676592
       3339.1197     0.071314822
       3340.0046     0.073378599
       3340.8894     0.068530218
       3341.7743     0.053518052
       3342.6592     0.089675038
       3343.5440     0.066186198
       3344.4289      0.10276071
       3345.3138     0.083308381
       3346.1987     0.056271868
       3347.0835     0.078944800
       3347.9684     0.097920610
       3348.8533     0.090219318
       3349.7381     0.083746735
       3350.6230     0.083269910
       3351.5079     0.095955045
       3352.3927     0.097877621
       3353.2776     0.076417611
       3354.1625     0.079771435
       3355.0474     0.077879218
       3355.9322      0.10393591
       3356.8171     0.088604013
       3357.7020     0.088836376
       3358.5868      0.11469364
       3359.4717     0.078782597
       3360.3566     0.086568542
       3361.2415     0.078065208
       3362.1263     0.060996161
       3363.0112     0.089892393
       3363.8961     0.073227631
       3364.7809     0.082588338
       3365.6658     0.082607954
       3366.5507     0.064002244
       3367.4355     0.065340007
       3368.3204     0.081740571
       3369.2053     0.092890644
       3370.0902     0.077465192
       3370.9750     0.060756033
       3371.8599     0.044666259
       3372.7448     0.079478126
       3373.6296     0.068367318
       3374.5145     0.085542534
       3375.3994     0.071170482
       3376.2842     0.075801709
       3377.1691     0.092319628
       3378.0540     0.075189359
       3378.9389     0.054349094
       3379.8237     0.099220783
       3380.7086     0.065239141
       3381.5935      0.11356306
       3382.4783     0.050004654
       3383.3632      0.10641619
       3384.2481      0.10060350
       3385.1330      0.10781956
       3386.0178     0.067602551
       3386.9027     0.097066679
       3387.7876     0.090809947
       3388.6724     0.087914841
       3389.5573      0.11479089
       3390.4422     0.078592386
       3391.3270      0.11453317
       3392.2119     0.074205925
       3393.0968     0.086644029
       3393.9817     0.094706713
       3394.8665     0.097911281
       3395.7514     0.058615252
       3396.6363     0.084157394
       3397.5211      0.10001573
       3398.4060     0.069298917
       3399.2909      0.10764633
       3400.1758     0.084554932
       3401.0606      0.10925749
       3401.9455      0.12025340
       3402.8304     0.097358456
       3403.7152      0.10958085
       3404.6001     0.088019049
       3405.4850     0.091159655
       3406.3698      0.10708196
       3407.2547      0.11226096
       3408.1396     0.099838072
       3409.0245      0.10827039
       3409.9093      0.10391791
       3410.7942     0.086394948
       3411.6791     0.072243450
       3412.5639      0.10221773
       3413.4488     0.062180621
       3414.3337     0.079769103
       3415.2185     0.077319273
       3416.1034     0.096963095
       3416.9883      0.10230609
       3417.8732     0.072304168
       3418.7580     0.089102323
       3419.6429     0.085641494
       3420.5278     0.075667023
       3421.4126     0.095505270
       3422.2975      0.12314732
       3423.1824     0.098994703
       3424.0673      0.11756005
       3424.9521     0.092360173
       3425.8370      0.11917678
       3426.7219      0.11425007
       3427.6067     0.095046325
       3428.4916     0.098251281
       3429.3765      0.11710664
       3430.2613      0.11230789
       3431.1462     0.096204723
       3432.0311      0.13934576
       3432.9160     0.094755804
       3433.8008     0.098543135
       3434.6857     0.095426797
       3435.5706      0.12305934
       3436.4554      0.11888810
       3437.3403     0.071945714
       3438.2252     0.092622841
       3439.1101     0.074649785
       3439.9949     0.098078183
       3440.8798     0.098083249
       3441.7647     0.068303217
       3442.6495     0.091972630
       3443.5344     0.088127470
       3444.4193     0.085602202
       3445.3041     0.098514704
       3446.1890     0.058213977
       3447.0739     0.051728220
       3447.9588      0.10152443
       3448.8436     0.091216792
       3449.7285      0.12008557
       3450.6134      0.10995736
       3451.4982      0.10148023
       3452.3831     0.096294875
       3453.2680     0.095952825
       3454.1528      0.10076841
       3455.0377      0.11910139
       3455.9226      0.10487342
       3456.8075      0.11024365
       3457.6923      0.11099189
       3458.5772      0.10285399
       3459.4621      0.11064578
       3460.3469      0.12802844
       3461.2318     0.098345665
       3462.1167     0.099689704
       3463.0016      0.11360975
       3463.8864     0.085627356
       3464.7713      0.10517511
       3465.6562     0.070987259
       3466.5410     0.091310108
       3467.4259     0.086688652
       3468.3108      0.10064052
       3469.1956     0.089902965
       3470.0805      0.10230825
       3470.9654     0.093265707
       3471.8503      0.10455057
       3472.7351     0.095605314
       3473.6200      0.12632386
       3474.5049      0.10158696
       3475.3897      0.11309440
       3476.2746      0.11676003
       3477.1595      0.10929760
       3478.0444     0.075581268
       3478.9292     0.083045246
       3479.8141     0.098257390
       3480.6990     0.098899898
       3481.5838     0.083711012
       3482.4687      0.11501972
       3483.3536      0.10763198
       3484.2384     0.095535182
       3485.1233     0.069908819
       3486.0082      0.11283186
       3486.8931      0.11075433
       3487.7779      0.12274117
       3488.6628      0.13691211
       3489.5477      0.11624642
       3490.4325     0.085819680
       3491.3174     0.085543875
       3492.2023     0.089458415
       3493.0871     0.091443375
       3493.9720      0.12980509
       3494.8569      0.10843686
       3495.7418      0.12441652
       3496.6266     0.053796800
       3497.5115      0.10797710
       3498.3964     0.089600202
       3499.2812     0.098248805
       3500.1661      0.10313247
       3501.0510     0.096558304
       3501.9359      0.13191851
       3502.8207      0.12009310
       3503.7056      0.11050518
       3504.5905      0.11151476
       3505.4753      0.12124073
       3506.3602      0.10469555
       3507.2451      0.12124511
       3508.1299      0.13148714
       3509.0148      0.12149961
       3509.8997      0.11227392
       3510.7846      0.10998567
       3511.6694      0.12285490
       3512.5543     0.097285764
       3513.4392      0.11219413
       3514.3240      0.10049503
       3515.2089      0.11354505
       3516.0938     0.098265547
       3516.9787      0.10737738
       3517.8635      0.12906530
       3518.7484      0.12267739
       3519.6333      0.11679523
       3520.5181      0.10244578
       3521.4030      0.10767585
       3522.2879      0.10224465
       3523.1727     0.096619993
       3524.0576      0.11917504
       3524.9425     0.076743426
       3525.8274     0.081648824
       3526.7122      0.11452527
       3527.5971     0.089092553
       3528.4820      0.10408963
       3529.3668     0.075321084
       3530.2517     0.094396957
       3531.1366      0.12827991
       3532.0214      0.11963594
       3532.9063      0.13340956
       3533.7912      0.13098275
       3534.6761      0.13695929
       3535.5609      0.11613967
       3536.4458      0.12039770
       3537.3307      0.15580207
       3538.2155      0.13376623
       3539.1004      0.11734315
       3539.9853      0.12492925
       3540.8702      0.12642896
       3541.7550      0.10840828
       3542.6399      0.11280938
       3543.5248      0.11970508
       3544.4096      0.12681660
       3545.2945      0.11349631
       3546.1794      0.12996276
       3547.0642      0.12239580
       3547.9491      0.10374343
       3548.8340      0.13325475
       3549.7189      0.17570659
       3550.6037      0.13029760
       3551.4886      0.12037042
       3552.3735      0.11462021
       3553.2583      0.12508086
       3554.1432      0.10361325
       3555.0281      0.10661608
       3555.9130      0.12568497
       3556.7978      0.10684278
       3557.6827     0.097890579
       3558.5676     0.095677507
       3559.4524      0.11315945
       3560.3373      0.10574909
       3561.2222      0.13982631
       3562.1070      0.12962271
       3562.9919     0.087143015
       3563.8768      0.12065657
       3564.7617      0.12456960
       3565.6465      0.10565974
       3566.5314      0.11132421
       3567.4163      0.11061484
       3568.3011     0.091975783
       3569.1860     0.090728689
       3570.0709      0.11120797
       3570.9557      0.10290117
       3571.8406     0.090889542
       3572.7255      0.12134791
       3573.6104      0.10324947
       3574.4952      0.13589555
       3575.3801      0.11138556
       3576.2650     0.084903135
       3577.1498      0.12617065
       3578.0347      0.12512190
       3578.9196      0.10242281
       3579.8045      0.11003029
       3580.6893      0.12373155
       3581.5742      0.11735455
       3582.4591     0.093784561
       3583.3439      0.10646171
       3584.2288     0.091792186
       3585.1137      0.11718346
       3585.9985     0.089764178
       3586.8834     0.040996795
       3587.7683     0.084809455
       3588.6532     0.086433678
       3589.5380      0.10173729
       3590.4229     0.098630808
       3591.3078      0.12138727
       3592.1926      0.10045106
       3593.0775     0.098413429
       3593.9624      0.13951113
       3594.8473      0.13997156
       3595.7321      0.13338044
       3596.6170      0.14802738
       3597.5019      0.12707807
       3598.3867      0.14065388
       3599.2716      0.12812479
       3600.1565      0.14736513
       3601.0413      0.12547292
       3601.9262      0.11895893
       3602.8111      0.13854511
       3603.6960      0.15078656
       3604.5808      0.10422256
       3605.4657      0.14322535
       3606.3506      0.11054668
       3607.2354      0.11599455
       3608.1203      0.12749322
       3609.0052      0.10493633
       3609.8900      0.11523636
       3610.7749      0.11464369
       3611.6598      0.13639812
       3612.5447      0.11421191
       3613.4295      0.12396230
       3614.3144      0.12348130
       3615.1993      0.10393290
       3616.0841      0.13179209
       3616.9690      0.12262758
       3617.8539      0.14177249
       3618.7388     0.088796313
       3619.6236      0.11901757
       3620.5085      0.11321333
       3621.3934      0.13457693
       3622.2782      0.14085684
       3623.1631      0.12885081
       3624.0480      0.13510568
       3624.9328      0.13258400
       3625.8177      0.19502866
       3626.7026      0.17815577
       3627.5875      0.13285334
       3628.4723      0.17626419
       3629.3572      0.15810265
       3630.2421      0.14705870
       3631.1269      0.12385170
       3632.0118      0.11773434
       3632.8967      0.13899837
       3633.7816      0.14507181
       3634.6664      0.15607469
       3635.5513      0.12785848
       3636.4362      0.14941746
       3637.3210      0.14906169
       3638.2059      0.13671716
       3639.0908      0.15158793
       3639.9756      0.14757346
       3640.8605      0.13190904
       3641.7454      0.12678038
       3642.6303      0.12855113
       3643.5151      0.15194360
       3644.4000      0.15275553
       3645.2849      0.12084650
       3646.1697      0.11401851
       3647.0546      0.13012871
       3647.9395      0.12176846
       3648.8243      0.17150929
       3649.7092      0.13005353
       3650.5941      0.10665895
       3651.4790      0.11272201
       3652.3638      0.14543339
       3653.2487      0.15712702
       3654.1336      0.11423519
       3655.0184      0.13643865
       3655.9033      0.17750247
       3656.7882      0.17068769
       3657.6731      0.18595595
       3658.5579      0.19521027
       3659.4428      0.16627549
       3660.3277      0.17739327
       3661.2125      0.17968821
       3662.0974      0.15164611
       3662.9823      0.17953824
       3663.8671      0.18263577
       3664.7520      0.17877328
       3665.6369      0.13978127
       3666.5218      0.16661056
       3667.4066      0.12835790
       3668.2915      0.14710289
       3669.1764      0.14530949
       3670.0612      0.14715349
       3670.9461      0.16982944
       3671.8310      0.16883571
       3672.7158      0.17675409
       3673.6007      0.14663313
       3674.4856      0.13990661
       3675.3705      0.16500357
       3676.2553      0.15408124
       3677.1402      0.15703489
       3678.0251      0.15675528
       3678.9099      0.13639912
       3679.7948      0.14980858
       3680.6797      0.13119009
       3681.5646      0.15774776
       3682.4494      0.15188742
       3683.3343      0.16333809
       3684.2192      0.13984265
       3685.1040      0.14443529
       3685.9889      0.10739602
       3686.8738      0.13668587
       3687.7586      0.12703509
       3688.6435      0.15292160
       3689.5284      0.15987447
       3690.4133      0.17534756
       3691.2981      0.15176592
       3692.1830      0.18748305
       3693.0679      0.18369168
       3693.9527      0.16731517
       3694.8376      0.17739802
       3695.7225      0.17188687
       3696.6074      0.16507356
       3697.4922      0.18842652
       3698.3771      0.20521160
       3699.2620      0.18856690
       3700.1468      0.18514177
       3701.0317      0.17065682
       3701.9166      0.16467985
       3702.8014      0.15007411
       3703.6863      0.14319465
       3704.5712      0.15962723
       3705.4561      0.10987732
       3706.3409      0.17412938
       3707.2258      0.13591035
       3708.1107      0.14264677
       3708.9955      0.14101465
       3709.8804      0.14570109
       3710.7653      0.17476741
       3711.6501      0.14415532
       3712.5350      0.17064286
       3713.4199      0.17160273
       3714.3048      0.18200446
       3715.1896      0.15709993
       3716.0745      0.15218052
       3716.9594      0.14730550
       3717.8442      0.15343874
       3718.7291      0.14101269
       3719.6140      0.13894988
       3720.4989      0.13699093
       3721.3837      0.14379917
       3722.2686      0.17802168
       3723.1535      0.18154831
       3724.0383      0.22267541
       3724.9232      0.20403428
       3725.8081      0.23632344
       3726.6929      0.27130134
       3727.5778      0.24699463
       3728.4627      0.26425346
       3729.3476      0.24078319
       3730.2324      0.18935493
       3731.1173      0.15946107
       3732.0022      0.13166008
       3732.8870      0.16161193
       3733.7719      0.15627780
       3734.6568      0.11304789
       3735.5417      0.11120030
       3736.4265      0.14229405
       3737.3114      0.16893670
       3738.1963      0.16747074
       3739.0811      0.16399950
       3739.9660      0.16483244
       3740.8509      0.16948887
       3741.7357      0.16299903
       3742.6206      0.16110565
       3743.5055      0.12285551
       3744.3904      0.11992147
       3745.2752      0.15765786
       3746.1601      0.12940272
       3747.0450      0.10802433
       3747.9298      0.12436544
       3748.8147      0.11964399
       3749.6996      0.15399927
       3750.5844      0.13929008
       3751.4693      0.16951397
       3752.3542      0.18190674
       3753.2391      0.17722353
       3754.1239      0.22326747
       3755.0088      0.18307337
       3755.8937      0.18229552
       3756.7785      0.15485364
       3757.6634      0.18494313
       3758.5483      0.18560498
       3759.4332      0.19073972
       3760.3180      0.16137259
       3761.2029      0.17744203
       3762.0878      0.13965987
       3762.9726      0.15160456
       3763.8575      0.15114942
       3764.7424      0.17253480
       3765.6272      0.15726296
       3766.5121      0.17361782
       3767.3970      0.15621558
       3768.2819      0.20516644
       3769.1667      0.18355393
       3770.0516      0.19250052
       3770.9365      0.22764126
       3771.8213      0.17228869
       3772.7062      0.15539473
       3773.5911      0.18147360
       3774.4760      0.23106077
       3775.3608      0.21529828
       3776.2457      0.23389772
       3777.1306      0.21350006
       3778.0154      0.18711546
       3778.9003      0.24381548
       3779.7852      0.18449840
       3780.6700      0.22913691
       3781.5549      0.24813503
       3782.4398      0.20488363
       3783.3247      0.21642846
       3784.2095      0.20522556
       3785.0944      0.19842709
       3785.9793      0.21150853
       3786.8641      0.17008564
       3787.7490      0.21768170
       3788.6339      0.15110370
       3789.5187      0.17361827
       3790.4036      0.14409316
       3791.2885      0.14989414
       3792.1734      0.18752396
       3793.0582      0.15314011
       3793.9431      0.15510839
       3794.8280      0.15867778
       3795.7128      0.16207387
       3796.5977      0.15596184
       3797.4826      0.16206699
       3798.3675      0.15294294
       3799.2523      0.16984355
       3800.1372      0.16286823
       3801.0221      0.18677122
       3801.9069      0.14774821
       3802.7918      0.21288579
       3803.6767      0.19635629
       3804.5615      0.15736027
       3805.4464      0.20275898
       3806.3313      0.23155544
       3807.2162      0.20035295
       3808.1010      0.20294867
       3808.9859      0.19505114
       3809.8708      0.21681721
       3810.7556      0.18630902
       3811.6405      0.18777843
       3812.5254      0.18854205
       3813.4103      0.19059199
       3814.2951      0.18586634
       3815.1800      0.18651447
       3816.0649      0.17668899
       3816.9497      0.18056716
       3817.8346      0.16499267
       3818.7195      0.14815861
       3819.6043      0.15583902
       3820.4892      0.13972620
       3821.3741      0.16207606
       3822.2590      0.12071434
       3823.1438      0.12389923
       3824.0287      0.13968254
       3824.9136      0.14595920
       3825.7984      0.11578941
       3826.6833      0.11542646
       3827.5682      0.13997805
       3828.4530      0.12800991
       3829.3379      0.10460524
       3830.2228      0.11577673
       3831.1077      0.12274252
       3831.9925      0.14881436
       3832.8774      0.15287875
       3833.7623      0.11283633
       3834.6471      0.11721328
       3835.5320      0.13162702
       3836.4169      0.12695487
       3837.3018      0.14639446
       3838.1866      0.17797871
       3839.0715      0.18106586
       3839.9564      0.19720286
       3840.8412      0.17067715
       3841.7261      0.19302309
       3842.6110      0.15902242
       3843.4958      0.17619567
       3844.3807      0.22557408
       3845.2656      0.18507484
       3846.1505      0.21553824
       3847.0353      0.22210289
       3847.9202      0.21829156
       3848.8051      0.16894474
       3849.6899      0.22054328
       3850.5748      0.22407836
       3851.4597      0.18860666
       3852.3446      0.21387651
       3853.2294      0.17662984
       3854.1143      0.18834315
       3854.9992      0.16451203
       3855.8840      0.15211184
       3856.7689      0.18367590
       3857.6538      0.21194545
       3858.5386      0.20671552
       3859.4235      0.19988089
       3860.3084      0.19300884
       3861.1933      0.22742519
       3862.0781      0.20833482
       3862.9630      0.19729468
       3863.8479      0.21713047
       3864.7327      0.20022927
       3865.6176      0.24766914
       3866.5025      0.17257037
       3867.3873      0.16863795
       3868.2722      0.15621925
       3869.1571      0.19002164
       3870.0420      0.21090724
       3870.9268      0.16400112
       3871.8117      0.17604909
       3872.6966      0.21603297
       3873.5814      0.20757787
       3874.4663      0.15390563
       3875.3512      0.14512539
       3876.2361      0.20258737
       3877.1209      0.17615049
       3878.0058      0.16698256
       3878.8907      0.13476385
       3879.7755      0.19527908
       3880.6604      0.16855450
       3881.5453      0.19663328
       3882.4301      0.16212551
       3883.3150      0.17973663
       3884.1999      0.16535587
       3885.0848      0.20783407
       3885.9696      0.20787676
       3886.8545      0.20937430
       3887.7394      0.22489119
       3888.6242      0.24605839
       3889.5091      0.22390699
       3890.3940      0.26160534
       3891.2789      0.22022018
       3892.1637      0.24037875
       3893.0486      0.21570957
       3893.9335      0.23108172
       3894.8183      0.22489735
       3895.7032      0.19344110
       3896.5881      0.19960311
       3897.4729      0.21573721
       3898.3578      0.22761533
       3899.2427      0.22063193
       3900.1276      0.22829714
       3901.0124      0.22334229
       3901.8973      0.24300945
       3902.7822      0.22164221
       3903.6670      0.22584325
       3904.5519      0.23805848
       3905.4368      0.25442160
       3906.3216      0.27497918
       3907.2065      0.24964484
       3908.0914      0.23292397
       3908.9763      0.22792518
       3909.8611      0.27378812
       3910.7460      0.26255537
       3911.6309      0.24582503
       3912.5157      0.24093525
       3913.4006      0.23770926
       3914.2855      0.24514981
       3915.1704      0.24372239
       3916.0552      0.20504278
       3916.9401      0.21364439
       3917.8250      0.19478126
       3918.7098      0.22494160
       3919.5947      0.21481456
       3920.4796      0.21299080
       3921.3644      0.19738438
       3922.2493      0.18079694
       3923.1342      0.18580538
       3924.0191      0.15957929
       3924.9039      0.16404981
       3925.7888      0.11490667
       3926.6737      0.11113468
       3927.5585      0.10057559
       3928.4434     0.086538474
       3929.3283     0.098734373
       3930.2132      0.10070638
       3931.0980      0.13260232
       3931.9829      0.18398227
       3932.8678      0.17900732
       3933.7526      0.16973548
       3934.6375      0.19729960
       3935.5224      0.20145130
       3936.4072      0.19276646
       3937.2921      0.22259497
       3938.1770      0.22061151
       3939.0619      0.23968756
       3939.9467      0.23917206
       3940.8316      0.25678998
       3941.7165      0.26072593
       3942.6013      0.23903283
       3943.4862      0.25384474
       3944.3711      0.27104846
       3945.2559      0.25795303
       3946.1408      0.26826839
       3947.0257      0.27922606
       3947.9106      0.26219614
       3948.7954      0.25071398
       3949.6803      0.27420306
       3950.5652      0.23113977
       3951.4500      0.27696312
       3952.3349      0.24248368
       3953.2198      0.22064981
       3954.1047      0.18901257
       3954.9895      0.20090582
       3955.8744      0.16401876
       3956.7593      0.16897845
       3957.6441      0.17286714
       3958.5290      0.14336701
       3959.4139      0.13380251
       3960.2987      0.12927726
       3961.1836     0.079619421
       3962.0685      0.11281287
       3962.9534      0.13507539
       3963.8382      0.17971090
       3964.7231      0.13158671
       3965.6080      0.13775621
       3966.4928      0.18563514
       3967.3777      0.19576188
       3968.2626      0.15610949
       3969.1475      0.20782029
       3970.0323      0.23055009
       3970.9172      0.24042221
       3971.8021      0.29924205
       3972.6869      0.27784972
       3973.5718      0.30824799
       3974.4567      0.31735972
       3975.3415      0.28350762
       3976.2264      0.26912424
       3977.1113      0.23905133
       3977.9962      0.27478699
       3978.8810      0.30720233
       3979.7659      0.27905202
       3980.6508      0.24968713
       3981.5356      0.31034452
       3982.4205      0.29196179
       3983.3054      0.27404112
       3984.1902      0.33671017
       3985.0751      0.33650095
       3985.9600      0.28376621
       3986.8449      0.35274432
       3987.7297      0.29567335
       3988.6146      0.31302670
       3989.4995      0.33168309
       3990.3843      0.32160070
       3991.2692      0.30669305
       3992.1541      0.32753684
       3993.0390      0.32007175
       3993.9238      0.32481660
       3994.8087      0.34740065
       3995.6936      0.34455644
       3996.5784      0.32774088
       3997.4633      0.26787577
       3998.3482      0.28797703
       3999.2330      0.29815751
       4000.1179      0.32518778
       4001.0028      0.33028676
       4001.8877      0.35715244
       4002.7725      0.34799270
       4003.6574      0.33240890
       4004.5423      0.32033756
       4005.4271      0.34336308
       4006.3120      0.34367397
       4007.1969      0.38969838
       4008.0818      0.34135816
       4008.9666      0.36720159
       4009.8515      0.34740274
       4010.7364      0.35455769
       4011.6212      0.34765872
       4012.5061      0.35968825
       4013.3910      0.35489344
       4014.2758      0.35941319
       4015.1607      0.33276776
       4016.0456      0.34663958
       4016.9305      0.29749070
       4017.8153      0.32692721
       4018.7002      0.33138786
       4019.5851      0.32201199
       4020.4699      0.37092164
       4021.3548      0.32550070
       4022.2397      0.32115475
       4023.1245      0.32464215
       4024.0094      0.30689983
       4024.8943      0.33756515
       4025.7792      0.32530012
       4026.6640      0.31587197
       4027.5489      0.34960598
       4028.4338      0.34180320
       4029.3186      0.34709315
       4030.2035      0.40386130
       4031.0884      0.36745143
       4031.9733      0.34580173
       4032.8581      0.35083506
       4033.7430      0.31664537
       4034.6279      0.32162848
       4035.5127      0.32632425
       4036.3976      0.31020192
       4037.2825      0.32333564
       4038.1673      0.28862238
       4039.0522      0.31310948
       4039.9371      0.34867200
       4040.8220      0.35451757
       4041.7068      0.36421041
       4042.5917      0.34616104
       4043.4766      0.35912019
       4044.3614      0.34151978
       4045.2463      0.31156439
       4046.1312      0.35416552
       4047.0161      0.34650576
       4047.9009      0.33037308
       4048.7858      0.34307151
       4049.6707      0.34179869
       4050.5555      0.35580483
       4051.4404      0.33469354
       4052.3253      0.35749270
       4053.2101      0.35736810
       4054.0950      0.34645733
       4054.9799      0.35087357
       4055.8648      0.36192978
       4056.7496      0.34469917
       4057.6345      0.35195013
       4058.5194      0.34685693
       4059.4042      0.35541557
       4060.2891      0.35340163
       4061.1740      0.37320665
       4062.0588      0.37102422
       4062.9437      0.36863680
       4063.8286      0.32760685
       4064.7135      0.34906138
       4065.5983      0.34777979
       4066.4832      0.32141703
       4067.3681      0.34113731
       4068.2529      0.33539755
       4069.1378      0.35465338
       4070.0227      0.36556775
       4070.9076      0.35901571
       4071.7924      0.33039483
       4072.6773      0.36580241
       4073.5622      0.36079071
       4074.4470      0.35008268
       4075.3319      0.39691662
       4076.2168      0.34151453
       4077.1016      0.38690908
       4077.9865      0.39744723
       4078.8714      0.42433683
       4079.7563      0.36623147
       4080.6411      0.34186023
       4081.5260      0.40306706
       4082.4109      0.38704475
       4083.2957      0.35080160
       4084.1806      0.34549119
       4085.0655      0.33266295
       4085.9504      0.31807245
       4086.8352      0.31058599
       4087.7201      0.27897740
       4088.6050      0.29147851
       4089.4898      0.29239219
       4090.3747      0.30328068
       4091.2596      0.26171283
       4092.1444      0.30449368
       4093.0293      0.29271770
       4093.9142      0.31767618
       4094.7991      0.34918118
       4095.6839      0.35027072
       4096.5688      0.32586532
       4097.4537      0.33513254
       4098.3385      0.33813878
       4099.2234      0.34473499
       4100.1083      0.36370235
       4100.9931      0.35026158
       4101.8780      0.36430021
       4102.7629      0.34631721
       4103.6478      0.37234416
       4104.5326      0.40953171
       4105.4175      0.37397244
       4106.3024      0.39800324
       4107.1872      0.36939608
       4108.0721      0.32259318
       4108.9570      0.32333999
       4109.8419      0.36235187
       4110.7267      0.36678713
       4111.6116      0.35739470
       4112.4965      0.38045349
       4113.3813      0.37745131
       4114.2662      0.36905026
       4115.1511      0.35341232
       4116.0359      0.38745312
       4116.9208      0.38458924
       4117.8057      0.32914402
       4118.6906      0.34972853
       4119.5754      0.36134045
       4120.4603      0.34853880
       4121.3452      0.36882283
       4122.2300      0.35535015
       4123.1149      0.31729763
       4123.9998      0.34340338
       4124.8847      0.40274244
       4125.7695      0.38908427
       4126.6544      0.36407935
       4127.5393      0.38269821
       4128.4241      0.39930037
       4129.3090      0.36660793
       4130.1939      0.38181142
       4131.0787      0.34316922
       4131.9636      0.36014066
       4132.8485      0.37003400
       4133.7334      0.36855051
       4134.6182      0.37032833
       4135.5031      0.38305823
       4136.3880      0.40383770
       4137.2728      0.34879436
       4138.1577      0.36005373
       4139.0426      0.37551859
       4139.9274      0.37537079
       4140.8123      0.37218924
       4141.6972      0.36997637
       4142.5821      0.37515206
       4143.4669      0.35243646
       4144.3518      0.38505433
       4145.2367      0.39726266
       4146.1215      0.39537157
       4147.0064      0.38390256
       4147.8913      0.40835284
       4148.7762      0.36883481
       4149.6610      0.39261314
       4150.5459      0.34854475
       4151.4308      0.41016261
       4152.3156      0.42992226
       4153.2005      0.42082106
       4154.0854      0.38927862
       4154.9702      0.41143941
       4155.8551      0.36027083
       4156.7400      0.35468304
       4157.6249      0.39536952
       4158.5097      0.36324794
       4159.3946      0.34960813
       4160.2795      0.34728365
       4161.1643      0.35788606
       4162.0492      0.37651696
       4162.9341      0.38003774
       4163.8190      0.33347625
       4164.7038      0.34261749
       4165.5887      0.37088444
       4166.4736      0.40886476
       4167.3584      0.40351156
       4168.2433      0.37155216
       4169.1282      0.36646072
       4170.0130      0.36692888
       4170.8979      0.42272510
       4171.7828      0.39969458
       4172.6677      0.37866033
       4173.5525      0.36357237
       4174.4374      0.37342606
       4175.3223      0.38095383
       4176.2071      0.40944440
       4177.0920      0.43211577
       4177.9769      0.43319807
       4178.8617      0.39550218
       4179.7466      0.36982151
       4180.6315      0.40141691
       4181.5164      0.39734606
       4182.4012      0.39205428
       4183.2861      0.40381973
       4184.1710      0.37603311
       4185.0558      0.35172892
       4185.9407      0.36622868
       4186.8256      0.34284414
       4187.7105      0.35924305
       4188.5953      0.38293558
       4189.4802      0.36274324
       4190.3651      0.36485003
       4191.2499      0.41104356
       4192.1348      0.43512117
       4193.0197      0.36895734
       4193.9045      0.39130104
       4194.7894      0.40962515
       4195.6743      0.42604727
       4196.5592      0.43931970
       4197.4440      0.41233464
       4198.3289      0.39629649
       4199.2138      0.37954256
       4200.0986      0.39045764
       4200.9835      0.40717917
       4201.8684      0.40648891
       4202.7533      0.42192173
       4203.6381      0.39287731
       4204.5230      0.43236952
       4205.4079      0.44789206
       4206.2927      0.43192081
       4207.1776      0.43709080
       4208.0625      0.41000293
       4208.9473      0.43026478
       4209.8322      0.41854094
       4210.7171      0.36907062
       4211.6020      0.38077918
       4212.4868      0.33202829
       4213.3717      0.37450837
       4214.2566      0.36124452
       4215.1414      0.40675158
       4216.0263      0.42450448
       4216.9112      0.38044310
       4217.7960      0.40026227
       4218.6809      0.40531868
       4219.5658      0.36996396
       4220.4507      0.41697995
       4221.3355      0.36729641
       4222.2204      0.39510564
       4223.1053      0.42682623
       4223.9901      0.41307131
       4224.8750      0.40898561
       4225.7599      0.43093255
       4226.6448      0.39541156
       4227.5296      0.40359075
       4228.4145      0.42226598
       4229.2994      0.44525416
       4230.1842      0.47350195
       4231.0691      0.41717651
       4231.9540      0.43718009
       4232.8388      0.41969869
       4233.7237      0.41148166
       4234.6086      0.42326609
       4235.4935      0.43653901
       4236.3783      0.40751972
       4237.2632      0.41236626
       4238.1481      0.43118820
       4239.0329      0.42822500
       4239.9178      0.42849903
       4240.8027      0.39690888
       4241.6876      0.40217739
       4242.5724      0.43431224
       4243.4573      0.42504810
       4244.3422      0.40594836
       4245.2270      0.41459875
       4246.1119      0.41496036
       4246.9968      0.44556297
       4247.8816      0.40591223
       4248.7665      0.42345903
       4249.6514      0.45495106
       4250.5363      0.47084199
       4251.4211      0.46303015
       4252.3060      0.38541414
       4253.1909      0.38552987
       4254.0757      0.40948024
       4254.9606      0.37894142
       4255.8455      0.36755567
       4256.7303      0.40178285
       4257.6152      0.36533976
       4258.5001      0.35852935
       4259.3850      0.37746497
       4260.2698      0.41178997
       4261.1547      0.41534064
       4262.0396      0.42015855
       4262.9244      0.42361482
       4263.8093      0.44236964
       4264.6942      0.39364277
       4265.5791      0.42204288
       4266.4639      0.39627796
       4267.3488      0.42777146
       4268.2337      0.41159342
       4269.1185      0.43140541
       4270.0034      0.38436352
       4270.8883      0.40022404
       4271.7731      0.42234168
       4272.6580      0.41548534
       4273.5429      0.41545728
       4274.4278      0.36026613
       4275.3126      0.37624897
       4276.1975      0.40368496
       4277.0824      0.35609260
       4277.9672      0.38105332
       4278.8521      0.38357691
       4279.7370      0.35046172
       4280.6219      0.35843816
       4281.5067      0.34518806
       4282.3916      0.35068995
       4283.2765      0.32820991
       4284.1613      0.30744132
       4285.0462      0.27908244
       4285.9311      0.32538054
       4286.8159      0.43730531
       4287.7008      0.47950445
       4288.5857      0.45419681
       4289.4706      0.41103912
       4290.3554      0.33767335
       4291.2403      0.34615416
       4292.1252      0.35114400
       4293.0100      0.34455761
       4293.8949      0.35647639
       4294.7798      0.34773952
       4295.6646      0.31918328
       4296.5495      0.37157058
       4297.4344      0.42859878
       4298.3193      0.44740711
       4299.2041      0.44344258
       4300.0890      0.47766577
       4300.9739      0.49977285
       4301.8587      0.47368348
       4302.7436      0.46961593
       4303.6285      0.45649144
       4304.5134      0.44329638
       4305.3982      0.40243781
       4306.2831      0.37311502
       4307.1680      0.39323724
       4308.0528      0.40030624
       4308.9377      0.42232212
       4309.8226      0.41569739
       4310.7074      0.39974735
       4311.5923      0.39754232
       4312.4772      0.43765575
       4313.3621      0.44551323
       4314.2469      0.42115349
       4315.1318      0.43713240
       4316.0167      0.47588107
       4316.9015      0.43543028
       4317.7864      0.38616304
       4318.6713      0.40224297
       4319.5562      0.39756991
       4320.4410      0.39056988
       4321.3259      0.34201845
       4322.2108      0.34484449
       4323.0956      0.38519389
       4323.9805      0.37443674
       4324.8654      0.37311977
       4325.7502      0.38953069
       4326.6351      0.35852844
       4327.5200      0.39434766
       4328.4049      0.43151756
       4329.2897      0.40906506
       4330.1746      0.43386434
       4331.0595      0.48498241
       4331.9443      0.46386498
       4332.8292      0.43600420
       4333.7141      0.41589404
       4334.5989      0.47724112
       4335.4838      0.45688871
       4336.3687      0.45008246
       4337.2536      0.46522221
       4338.1384      0.47059720
       4339.0233      0.43502985
       4339.9082      0.47503914
       4340.7930      0.46316064
       4341.6779      0.45377223
       4342.5628      0.45356865
       4343.4477      0.45721621
       4344.3325      0.46371872
       4345.2174      0.45584114
       4346.1023      0.46420859
       4346.9871      0.49249315
       4347.8720      0.42428783
       4348.7569      0.47026439
       4349.6417      0.50059608
       4350.5266      0.46036318
       4351.4115      0.44350214
       4352.2964      0.45873349
       4353.1812      0.48189165
       4354.0661      0.45361319
       4354.9510      0.42430637
       4355.8358      0.44591976
       4356.7207      0.48885056
       4357.6056      0.44696698
       4358.4905      0.42886956
       4359.3753      0.42578083
       4360.2602      0.39937434
       4361.1451      0.45054255
       4362.0299      0.41053347
       4362.9148      0.39778330
       4363.7997      0.37487414
       4364.6845      0.36682812
       4365.5694      0.37955848
       4366.4543      0.39637743
       4367.3392      0.38507130
       4368.2240      0.41422660
       4369.1089      0.45014249
       4369.9938      0.43337804
       4370.8786      0.43184752
       4371.7635      0.42356097
       4372.6484      0.46546483
       4373.5332      0.43448605
       4374.4181      0.47238870
       4375.3030      0.46447204
       4376.1879      0.45430445
       4377.0727      0.46905219
       4377.9576      0.47982206
       4378.8425      0.45623539
       4379.7273      0.43211935
       4380.6122      0.45000148
       4381.4971      0.47616869
       4382.3820      0.43179305
       4383.2668      0.42884150
       4384.1517      0.42472369
       4385.0366      0.41714180
       4385.9214      0.42435112
       4386.8063      0.43791121
       4387.6912      0.42766563
       4388.5760      0.45029255
       4389.4609      0.47815745
       4390.3458      0.50418948
       4391.2307      0.46496483
       4392.1155      0.47385227
       4393.0004      0.47915580
       4393.8853      0.45885410
       4394.7701      0.47349497
       4395.6550      0.46076107
       4396.5399      0.45870920
       4397.4248      0.50889411
       4398.3096      0.51288483
       4399.1945      0.46686893
       4400.0794      0.45163196
       4400.9642      0.51635543
       4401.8491      0.49092385
       4402.7340      0.49971973
       4403.6188      0.51932588
       4404.5037      0.52219227
       4405.3886      0.49951103
       4406.2735      0.50295857
       4407.1583      0.50334585
       4408.0432      0.50780826
       4408.9281      0.49395130
       4409.8129      0.49925967
       4410.6978      0.46730794
       4411.5827      0.47503958
       4412.4675      0.44945283
       4413.3524      0.44862425
       4414.2373      0.46262401
       4415.1222      0.47299757
       4416.0070      0.47741231
       4416.8919      0.47916678
       4417.7768      0.51050241
       4418.6616      0.51396295
       4419.5465      0.50873228
       4420.4314      0.48163615
       4421.3163      0.53043969
       4422.2011      0.50273669
       4423.0860      0.51555564
       4423.9709      0.54459733
       4424.8557      0.55605125
       4425.7406      0.51848245
       4426.6255      0.52620994
       4427.5103      0.56947156
       4428.3952      0.54717239
       4429.2801      0.54558240
       4430.1650      0.54175622
       4431.0498      0.47075326
       4431.9347      0.46113511
       4432.8196      0.48102186
       4433.7044      0.51700586
       4434.5893      0.46415002
       4435.4742      0.47103500
       4436.3591      0.44968086
       4437.2439      0.45360634
       4438.1288      0.44414252
       4439.0137      0.45632291
       4439.8985      0.48496436
       4440.7834      0.47239302
       4441.6683      0.49018725
       4442.5531      0.45599534
       4443.4380      0.47659638
       4444.3229      0.52104569
       4445.2078      0.48363238
       4446.0926      0.49366178
       4446.9775      0.50289153
       4447.8624      0.50266306
       4448.7472      0.52508423
       4449.6321      0.52478087
       4450.5170      0.52498954
       4451.4018      0.57619257
       4452.2867      0.59748292
       4453.1716      0.55154680
       4454.0565      0.52708415
       4454.9413      0.53208807
       4455.8262      0.52952896
       4456.7111      0.52378975
       4457.5959      0.50518723
       4458.4808      0.52844965
       4459.3657      0.56708733
       4460.2506      0.54230709
       4461.1354      0.49338904
       4462.0203      0.48618486
       4462.9052      0.53396110
       4463.7900      0.53007125
       4464.6749      0.55137629
       4465.5598      0.50694052
       4466.4446      0.50873320
       4467.3295      0.51056339
       4468.2144      0.53766300
       4469.0993      0.53924404
       4469.9841      0.47318665
       4470.8690      0.51148494
       4471.7539      0.50080931
       4472.6387      0.51748764
       4473.5236      0.50912957
       4474.4085      0.51545733
       4475.2934      0.50941556
       4476.1782      0.54723187
       4477.0631      0.54330204
       4477.9480      0.59856593
       4478.8328      0.60687767
       4479.7177      0.56897835
       4480.6026      0.55872051
       4481.4874      0.53936883
       4482.3723      0.56883338
       4483.2572      0.55869974
       4484.1421      0.54967578
       4485.0269      0.57951736
       4485.9118      0.54148508
       4486.7967      0.57238283
       4487.6815      0.59712000
       4488.5664      0.57288804
       4489.4513      0.56337480
       4490.3361      0.55942441
       4491.2210      0.54850772
       4492.1059      0.51719670
       4492.9908      0.53999880
       4493.8756      0.52628799
       4494.7605      0.54644556
       4495.6454      0.54111022
       4496.5302      0.55184080
       4497.4151      0.52630967
       4498.3000      0.53047762
       4499.1849      0.53747982
       4500.0697      0.54662210
       4500.9546      0.53226298
       4501.8395      0.52873470
       4502.7243      0.50219408
       4503.6092      0.47181849
       4504.4941      0.48638128
       4505.3789      0.48514597
       4506.2638      0.48679756
       4507.1487      0.45634847
       4508.0336      0.42832856
       4508.9184      0.42563345
       4509.8033      0.42737507
       4510.6882      0.45201932
       4511.5730      0.47294169
       4512.4579      0.48560777
       4513.3428      0.50653020
       4514.2277      0.52260584
       4515.1125      0.49374607
       4515.9974      0.50037401
       4516.8823      0.52061910
       4517.7671      0.52750903
       4518.6520      0.51729588
       4519.5369      0.44812574
       4520.4217      0.48426919
       4521.3066      0.43625784
       4522.1915      0.46222928
       4523.0764      0.48117720
       4523.9612      0.47229569
       4524.8461      0.47157127
       4525.7310      0.49281564
       4526.6158      0.48562480
       4527.5007      0.49619712
       4528.3856      0.46794432
       4529.2704      0.47628357
       4530.1553      0.47660760
       4531.0402      0.46602659
       4531.9251      0.51198512
       4532.8099      0.52931797
       4533.6948      0.49495901
       4534.5797      0.47485392
       4535.4645      0.44261981
       4536.3494      0.47356118
       4537.2343      0.50949020
       4538.1192      0.48305414
       4539.0040      0.45881775
       4539.8889      0.45039814
       4540.7738      0.38469496
       4541.6586      0.43921920
       4542.5435      0.43712737
       4543.4284      0.45892244
       4544.3132      0.50810963
       4545.1981      0.47374347
       4546.0830      0.41711298
       4546.9679      0.43358577
       4547.8527      0.47854113
       4548.7376      0.46997292
       4549.6225      0.47916964
       4550.5073      0.32244751
       4551.3922      0.26278682
       4552.2771      0.37368765
       4553.1620      0.34824171
       4554.0468      0.46472159
       4554.9317      0.44791406
       4555.8166      0.47524682
       4556.7014      0.57146949
       4557.5863      0.69335030
       4558.4712      0.65778104
       4559.3560      0.54730881
       4560.2409      0.47408513
       4561.1258      0.43316987
       4562.0107      0.44485234
       4562.8955      0.37786455
       4563.7804      0.37818291
       4564.6653      0.37999576
       4565.5501      0.35959474
       4566.4350      0.35209255
       4567.3199      0.39755910
       4568.2047      0.41123702
       4569.0896      0.41888586
       4569.9745      0.37584636
       4570.8594      0.35131466
       4571.7442      0.33963894
       4572.6291      0.37146272
       4573.5140      0.40008194
       5011.8258       1.9718389
       5012.8007       1.7157636
       5013.7757       1.5311171
       5014.7506       1.4329245
       5015.7255       1.4423228
       5016.7005       1.4156984
       5017.6754       1.5028086
       5018.6503       1.3805455
       5019.6253       1.4298905
       5020.6002       1.4176250
       5021.5751       1.3903357
       5022.5500       1.5533813
       5023.5250       1.5469147
       5024.4999       1.5670173
       5025.4748       1.3775625
       5026.4498       1.3211603
       5027.4247       1.3972029
       5028.3996       1.4176892
       5029.3745       1.4207930
       5030.3495       1.4754294
       5031.3244       1.4255750
       5032.2993       1.4508263
       5033.2743       1.4091879
       5034.2492       1.4164626
       5035.2241       1.5034959
       5036.1990       1.4452052
       5037.1740       1.2874200
       5038.1489       1.2354077
       5039.1238       1.3326283
       5040.0988       1.4090140
       5041.0737       1.3535588
       5042.0486       1.3639578
       5043.0235       1.4587083
       5043.9985       1.4512881
       5044.9734       1.4066658
       5045.9483       1.3927676
       5046.9233       1.3847063
       5047.8982       1.5392207
       5048.8731       1.5869878
       5049.8481       1.4637719
       5050.8230       1.4037189
       5051.7979       1.3881433
       5052.7728       1.3789077
       5053.7478       1.4752952
       5054.7227       1.5380073
       5055.6976       1.4922619
       5056.6726       1.5637908
       5057.6475       1.6299621
       5058.6224       1.5355345
       5059.5973       1.4755078
       5060.5723       1.4432306
       5061.5472       1.5696273
       5062.5221       1.5477907
       5063.4971       1.5562884
       5064.4720       1.5405542
       5065.4469       1.5477437
       5066.4218       1.3953445
       5067.3968       1.5076620
       5068.3717       1.4818432
       5069.3466       1.4057647
       5070.3216       1.4054105
       5071.2965       1.4390584
       5072.2714       1.4633458
       5073.2463       1.4506983
       5074.2213       1.4681066
       5075.1962       1.5005610
       5076.1711       1.5032234
       5077.1461       1.6316434
       5078.1210       1.6866805
       5079.0959       1.6032778
       5080.0709       1.6534638
       5081.0458       1.7194037
       5082.0207       1.9009675
       5082.9956       1.7075846
       5083.9706       1.6047325
       5084.9455       1.5829962
       5085.9204       1.4685459
       5086.8954       1.7254302
       5087.8703       1.6526766
       5088.8452       1.5589839
       5089.8201       1.5327732
       5090.7951       1.5481697
       5091.7700       1.5390183
       5092.7449       1.4858948
       5093.7199       1.6139924
       5094.6948       1.6825401
       5095.6697       1.7438576
       5096.6446       1.6001876
       5097.6196       1.6964276
       5098.5945       1.5122480
       5099.5694       1.5400213
       5100.5444       1.5783627
       5101.5193       1.4221670
       5102.4942       1.5432318
       5103.4692       1.4847791
       5104.4441       1.4351383
       5105.4190       1.4210835
       5106.3939       1.4907288
       5107.3689       1.4537406
       5108.3438       1.5392240
       5109.3187       1.4636580
       5110.2937       1.4849608
       5111.2686       1.5820318
       5112.2435       1.5475403
       5113.2184       1.5135495
       5114.1934       1.5661084
       5115.1683       1.5345963
       5116.1432       1.5449336
       5117.1182       1.4784497
       5118.0931       1.4471387
       5119.0680       1.5377360
       5120.0429       1.5250635
       5121.0179       1.4521200
       5121.9928       1.5404843
       5122.9677       1.5500531
       5123.9427       1.6508409
       5124.9176       1.5975001
       5125.8925       1.5941912
       5126.8674       1.5224779
       5127.8424       1.5776785
       5128.8173       1.3697443
       5129.7922       1.3902150
       5130.7672       1.4432765
       5131.7421       1.3524023
       5132.7170       1.3732614
       5133.6920       1.1146624
       5134.6669       1.0459107
       5135.6418       1.5510621
       5136.6167       1.4845461
       5137.5917       1.1769000
       5138.5666       1.1516668
       5139.5415       1.1369207
       5140.5165       1.7019066
       5141.4914       1.6850053
       5142.4663       1.3990041
       5143.4412       1.3935416
       5144.4162       1.6107041
       5145.3911       1.4735715
       5146.3660       1.4609220
       5147.3410       1.5323303
       5148.3159       1.4619181
       5149.2908       1.4709877
       5150.2657       1.4210350
       5151.2407       1.3948150
       5152.2156       1.4303372
       5153.1905       1.3779566
       5154.1655       1.5348706
       5155.1404       1.6013406
       5156.1153       1.5320748
       5157.0902       1.6354959
       5158.0652       1.5670993
       5159.0401       1.4643429
       5160.0150       1.5144821
       5160.9900       1.6022545
       5161.9649       1.7064011
       5162.9398       1.6858962
       5163.9148       1.5605534
       5164.8897       1.6006500
       5165.8646       1.6359510
       5166.8395       1.7962867
       5167.8145       1.6588871
       5168.7894       1.5316868
       5169.7643       1.6847203
       5170.7393       1.5678467
       5171.7142       1.5413881
       5172.6891       1.5108784
       5173.6640       1.6036796
       5174.6390       1.5521894
       5175.6139       1.5180994
       5176.5888       1.6142204
       5177.5638       1.6797389
       5178.5387       1.5860418
       5179.5136       1.6843210
       5180.4885       1.6790320
       5181.4635       1.7080599
       5182.4384       1.7340201
       5183.4133       1.7477563
       5184.3883       1.7040329
       5185.3632       1.7380177
       5186.3381       1.8545961
       5187.3130       1.7892193
       5188.2880       1.8458484
       5189.2629       1.7138049
       5190.2378       1.7750865
       5191.2128       1.6764921
       5192.1877       1.6319193
       5193.1626       1.6476789
       5194.1376       1.7333014
       5195.1125       1.6435906
       5196.0874       1.5306066
       5197.0623       1.6015580
       5198.0373       1.6845552
       5199.0122       1.6848601
       5199.9871       1.6906996
       5200.9621       1.6534515
       5201.9370       1.6796234
       5202.9119       1.8003746
       5203.8868       1.8203507
       5204.8618       1.8487152
       5205.8367       1.8089987
       5206.8116       1.8843413
       5207.7866       1.8806884
       5208.7615       1.7484477
       5209.7364       1.8674653
       5210.7113       1.9128908
       5211.6863       1.9510090
       5212.6612       1.8651586
       5213.6361       1.7778129
       5214.6111       1.6833407
       5215.5860       1.8259292
       5216.5609       1.8977707
       5217.5358       1.7304640
       5218.5108       1.7503295
       5219.4857       1.7259240
       5220.4606       1.6656864
       5221.4356       1.7036804
       5222.4105       1.8118310
       5223.3854       1.7451413
       5224.3604       1.8428388
       5225.3353       1.8277597
       5226.3102       1.8181693
       5227.2851       1.8011892
       5228.2601       1.8616679
       5229.2350       1.9388480
       5230.2099       1.7890173
       5231.1849       1.7861432
       5232.1598       1.7665220
       5233.1347       1.7004552
       5234.1096       1.6771377
       5235.0846       1.6209366
       5236.0595       1.6287371
       5237.0344       1.5545689
       5238.0094       1.6748917
       5238.9843       1.7113788
       5239.9592       1.7419294
       5240.9341       1.7825291
       5241.9091       1.7843269
       5242.8840       1.7532911
       5243.8589       1.7348173
       5244.8339       1.8165211
       5245.8088       1.8155302
       5246.7837       1.9862483
       5247.7587       1.8248672
       5248.7336       1.8076339
       5249.7085       1.9033572
       5250.6834       1.9474132
       5251.6584       1.9681289
       5252.6333       1.9445765
       5253.6082       1.9561335
       5254.5832       1.8566705
       5255.5581       1.8829418
       5256.5330       2.0579363
       5257.5079       2.0821178
       5258.4829       2.0370201
       5259.4578       2.1038272
       5260.4327       2.1138975
       5261.4077       2.0100663
       5262.3826       1.9771034
       5263.3575       1.9478253
       5264.3324       1.9016886
       5265.3074       1.8935740
       5266.2823       1.9847808
       5267.2572       1.9585589
       5268.2322       1.9637690
       5269.2071       2.0058821
       5270.1820       2.0255716
       5271.1569       1.7917583
       5272.1319       2.0026056
       5273.1068       2.1572010
       5274.0817       2.0679851
       5275.0567       2.0940414
       5276.0316       2.0955522
       5277.0065       2.2063228
       5277.9815       2.2187141
       5278.9564       2.0883862
       5279.9313       2.2403920
       5280.9062       2.1156322
       5281.8812       2.1861500
       5282.8561       2.0302655
       5283.8310       2.0340512
       5284.8060       2.1020261
       5285.7809       2.0337940
       5286.7558       2.0168905
       5287.7307       2.1288582
       5288.7057       1.9353411
       5289.6806       1.8674971
       5290.6555       2.0897511
       5291.6305       1.9518185
       5292.6054       1.9872914
       5293.5803       2.0394955
       5294.5552       2.0039611
       5295.5302       1.9321970
       5296.5051       1.9602005
       5297.4800       1.9713862
       5298.4550       1.8080841
       5299.4299       1.8511890
       5300.4048       1.8213529
       5301.3797       1.8491567
       5302.3547       2.0683612
       5303.3296       2.0726304
       5304.3045       1.9171013
       5305.2795       2.0890469
       5306.2544       2.1989321
       5307.2293       2.1766306
       5308.2043       2.0193082
       5309.1792       2.1499962
       5310.1541       2.1131752
       5311.1290       2.0087340
       5312.1040       1.8279226
       5313.0789       2.1057014
       5314.0538       2.0259683
       5315.0288       2.0946527
       5316.0037       2.0808331
       5316.9786       2.1226591
       5317.9535       2.0499171
       5318.9285       2.0430378
       5319.9034       2.0606502
       5320.8783       2.0941606
       5321.8533       2.0638898
       5322.8282       2.1024924
       5323.8031       2.0927610
       5324.7780       2.0649295
       5325.7530       2.0847673
       5326.7279       2.1042393
       5327.7028       2.1517577
       5328.6778       2.1131756
       5329.6527       2.1905537
       5330.6276       2.2003096
       5331.6025       2.1559302
       5332.5775       2.1857623
       5333.5524       2.1752078
       5334.5273       2.2979733
       5335.5023       2.1621211
       5336.4772       2.0090979
       5337.4521       2.1453857
       5338.4271       2.0592710
       5339.4020       2.0988185
       5340.3769       2.0043420
       5341.3518       1.9595148
       5342.3268       1.9041374
       5343.3017       1.8758856
       5344.2766       1.9441980
       5345.2516       2.0353690
       5346.2265       2.1666336
       5347.2014       2.0187634
       5348.1763       2.0326792
       5349.1513       2.1925994
       5350.1262       2.1444898
       5351.1011       2.1363397
       5352.0761       2.0849587
       5353.0510       2.1753741
       5354.0259       2.0450415
       5355.0008       2.1627033
       5355.9758       2.2376811
       5356.9507       2.1625146
       5357.9256       2.1139873
       5358.9006       2.0393938
       5359.8755       2.1951367
       5360.8504       2.2571172
       5361.8253       2.2152902
       5362.8003       2.0046262
       5363.7752       2.0928767
       5364.7501       2.1541971
       5365.7251       2.2095788
       5366.7000       2.0612536
       5367.6749       1.9435027
       5368.6499       1.9063506
       5369.6248       2.0577289
       5370.5997       2.0623220
       5371.5746       2.0860105
       5372.5496       2.0740904
       5373.5245       1.9880764
       5374.4994       2.1681927
       5375.4744       1.9764847
       5376.4493       2.0519623
       5377.4242       1.9754833
       5378.3991       1.9360597
       5379.3741       1.9733274
       5380.3490       2.0307113
       5381.3239       1.9696455
       5382.2989       1.8532209
       5383.2738       1.9269544
       5384.2487       1.9934943
       5385.2236       2.0883250
       5386.1986       2.0903417
       5387.1735       2.0819689
       5388.1484       2.1038170
       5389.1234       2.1104161
       5390.0983       2.1215377
       5391.0732       2.1994404
       5392.0481       2.1110229
       5393.0231       2.1916180
       5393.9980       2.2181219
       5394.9729       2.2332937
       5395.9479       2.1588450
       5396.9228       2.1986434
       5397.8977       2.2604641
       5398.8727       2.1983902
       5399.8476       2.1676810
       5400.8225       2.1550173
       5401.7974       2.1497028
       5402.7724       2.0470787
       5403.7473       2.0081154
       5404.7222       2.1468279
       5405.6972       2.1058818
       5406.6721       2.0079395
       5407.6470       1.9742396
       5408.6219       1.9737796
       5409.5969       1.9497127
       5410.5718       2.0022133
       5411.5467       2.0238733
       5412.5217       2.0762260
       5413.4966       2.0305282
       5414.4715       2.1550240
       5415.4464       2.2649488
       5416.4214       2.3028795
       5417.3963       2.3003281
       5418.3712       2.2233481
       5419.3462       2.2183358
       5420.3211       2.1892876
       5421.2960       2.1736108
       5422.2710       2.0811680
       5423.2459       2.1266291
       5424.2208       2.1202116
       5425.1957       2.1425749
       5426.1707       2.2613387
       5427.1456       2.2797986
       5428.1205       2.2120653
       5429.0955       2.1645258
       5430.0704       2.0798498
       5431.0453       2.1078348
       5432.0202       1.9836508
       5432.9952       2.1354104
       5433.9701       2.0506868
       5434.9450       2.1807635
       5435.9200       2.1901754
       5436.8949       2.1353759
       5437.8698       2.0554920
       5438.8447       2.1362917
       5439.8197       2.1001107
       5440.7946       2.1105512
       5441.7695       2.2014654
       5442.7445       2.1684013
       5443.7194       2.1391614
       5444.6943       2.1757826
       5445.6692       2.1267224
       5446.6442       2.0980869
       5447.6191       2.1589195
       5448.5940       2.2046591
       5449.5690       2.1894933
       5450.5439       2.2368299
       5451.5188       2.1658728
       5452.4938       2.1946464
       5453.4687       2.1182610
       5454.4436       1.9940817
       5455.4185       2.0932734
       5456.3935       2.1099597
       5457.3684       2.1566627
       5458.3433       2.1671138
       5459.3183       2.1289183
       5460.2932       2.1962765
       5461.2681       2.1546804
       5462.2430       2.2064174
       5463.2180       2.2158521
       5464.1929       2.2070423
       5465.1678       2.1761637
       5466.1428       2.1910989
       5467.1177       2.3092301
       5468.0926       2.2715304
       5469.0675       2.1482293
       5470.0425       2.1552835
       5471.0174       2.0886458
       5471.9923       2.1113804
       5472.9673       2.1216425
       5473.9422       2.1739459
       5474.9171       2.2112406
       5475.8920       2.1606687
       5476.8670       2.3460050
       5477.8419       2.3064562
       5478.8168       2.2825127
       5479.7918       2.0657938
       5480.7667       2.1547829
       5481.7416       2.1082367
       5482.7166       2.0949658
       5483.6915       2.1225916
       5484.6664       2.0124447
       5485.6413       2.1032245
       5486.6163       2.0987134
       5487.5912       2.1364425
       5488.5661       2.1289040
       5489.5411       2.2018274
       5490.5160       2.1275214
       5491.4909       2.1751647
       5492.4658       2.1589199
       5493.4408       2.2437858
       5494.4157       2.2421155
       5495.3906       2.1200789
       5496.3656       2.2098282
       5497.3405       2.2426190
       5498.3154       2.2790347
       5499.2903       2.2113339
       5500.2653       2.1257005
       5501.2402       2.2070807
       5502.2151       2.2110178
       5503.1901       2.2181199
       5504.1650       2.2194787
       5505.1399       2.1288922
       5506.1148       2.1674950
       5507.0898       2.1911781
       5508.0647       2.1604039
       5509.0396       2.1977321
       5510.0146       2.1998547
       5510.9895       2.2309789
       5511.9644       2.1796839
       5512.9394       1.8923812
       5513.9143       1.5688262
       5514.8892       1.9577124
       5515.8641       1.7843950
       5516.8391       1.8157115
       5517.8140       2.1029213
       5518.7889       2.1168475
       5519.7639       2.1256297
       5520.7388       2.2191724
       5521.7137       2.3528061
       5522.6886       2.2126553
       5523.6636       2.1640094
       5524.6385       2.2398679
       5525.6134       2.2599689
       5526.5884       2.1586459
       5527.5633       2.0983746
       5528.5382       2.1920011
       5529.5131       2.2440377
       5530.4881       2.1368424
       5531.4630       2.1614833
       5532.4379       2.1921960
       5533.4129       2.2914725
       5534.3878       2.2756469
       5535.3627       2.2979063
       5536.3376       2.2814654
       5537.3126       2.2597695
       5538.2875       2.2515587
       5539.2624       2.3204982
       5540.2374       2.4080750
       5541.2123       2.2801934
       5542.1872       2.2615946
       5543.1622       2.2779041
       5544.1371       2.3335464
       5545.1120       2.2928475
       5546.0869       2.2666439
       5547.0619       2.2826543
       5548.0368       2.2565727
       5549.0117       2.2810564
       5549.9867       2.2488291
       5550.9616       2.2158518
       5551.9365       2.2649195
       5552.9114       2.3656072
       5553.8864       2.3424407
       5554.8613       2.2950624
       5555.8362       2.2678837
       5556.8112       2.4154045
       5557.7861       2.4578090
       5558.7610       2.3360908
       5559.7359       2.2220000
       5560.7109       2.4460898
       5561.6858       2.3110802
       5562.6607       2.3052543
       5563.6357       2.2885939
       5564.6106       2.3393654
       5565.5855       2.3322174
       5566.5604       2.2215402
       5567.5354       2.1286374
       5568.5103       2.1696179
       5569.4852       2.1430794
       5570.4602       2.2495568
       5571.4351       2.2697889
       5572.4100       2.2470885
       5573.3850       2.2763519
       5574.3599       2.2913620
       5575.3348       2.1940445
       5576.3097       2.2770195
       5577.2847       2.4057029
       5578.2596       2.3856577
       5579.2345       2.2132938
       5580.2095       2.1433964
       5581.1844       2.2978748
       5582.1593       2.3512292
       5583.1342       2.3730943
       5584.1092       2.3977596
       5585.0841       2.3802789
       5586.0590       2.3962947
       5587.0340       2.3173998
       5588.0089       2.2961484
       5588.9838       2.2650493
       5589.9587       2.2783652
       5590.9337       2.2907656
       5591.9086       2.2359226
       5592.8835       2.2084617
       5593.8585       2.2912335
       5594.8334       2.2765061
       5595.8083       2.2737780
       5596.7833       2.3412945
       5597.7582       2.4446213
       5598.7331       2.3170064
       5599.7080       2.2753496
       5600.6830       2.3148920
       5601.6579       2.3903798
       5602.6328       2.2470551
       5603.6078       2.2917024
       5604.5827       2.3957555
       5605.5576       2.4265451
       5606.5325       2.3719199
       5607.5075       2.3933294
       5608.4824       2.4141229
       5609.4573       2.3543316
       5610.4323       2.4255630
       5611.4072       2.4221769
       5612.3821       2.4257254
       5613.3570       2.4400394
       5614.3320       2.5598815
       5615.3069       2.4802402
       5616.2818       2.5034099
       5617.2568       2.5046666
       5618.2317       2.3923695
       5619.2066       2.2200382
       5620.1815       2.1453946
       5621.1565       1.9610219
       5622.1314       2.0924048
       5623.1063       1.9783311
       5624.0813       1.8572125
       5625.0562       1.9254276
       5626.0311       1.8938919
       5627.0061       1.9704320
       5627.9810       2.0759074
       5628.9559       2.1614481
       5629.9308       2.1925656
       5630.9058       2.2156619
       5631.8807       2.3902857
       5632.8556       2.3933451
       5633.8306       2.2487395
       5634.8055       2.2476598
       5635.7804       2.1548632
       5636.7553       1.9352196
       5637.7303       2.0005226
       5638.7052       2.0345710
       5639.6801       1.9879446
       5640.6551       2.0745894
       5641.6300       2.0880578
       5642.6049       2.0994199
       5643.5798       2.1107016
       5644.5548       2.1538676
       5645.5297       2.0926956
       5646.5046       2.2830161
       5647.4796       2.1175227
       5648.4545       2.1930803
       5649.4294       2.2382383
       5650.4043       2.2136766
       5651.3793       2.2271621
       5652.3542       2.2501174
       5653.3291       2.3873536
       5654.3041       2.3530286
       5655.2790       2.3542884
       5656.2539       2.4688678
       5657.2289       2.4877013
       5658.2038       2.4935081
       5659.1787       2.4665071
       5660.1536       2.2995218
       5661.1286       2.1805664
       5662.1035       2.2363220
       5663.0784       2.2974400
       5664.0534       2.1939840
       5665.0283       2.4477368
       5666.0032       2.4081338
       5666.9781       2.3481634
       5667.9531       2.3978375
       5668.9280       2.2971894
       5669.9029       2.4054274
       5670.8779       2.5036602
       5671.8528       2.5996519
       5672.8277       2.4036455
       5673.8026       2.4520123
       5674.7776       2.4719482
       5675.7525       2.4807620
       5676.7274       2.5048419
       5677.7024       2.5167237
       5678.6773       2.5247481
       5679.6522       2.4306269
       5680.6271       2.4000931
       5681.6021       2.4842865
       5682.5770       2.4680763
       5683.5519       2.3986973
       5684.5269       2.3587203
       5685.5018       2.6351024
       5686.4767       2.6102402
       5687.4517       2.3855601
       5688.4266       2.3465530
       5689.4015       2.4108897
       5690.3764       2.4744033
       5691.3514       2.4113921
       5692.3263       2.3874439
       5693.3012       2.3110046
       5694.2762       2.3650104
       5695.2511       2.4600153
       5696.2260       2.4863138
       5697.2009       2.5895924
       5698.1759       2.4771159
       5699.1508       2.5360830
       5700.1257       2.5735618
       5701.1007       2.5865256
       5702.0756       2.5715162
       5703.0505       2.5318060
       5704.0254       2.7153418
       5705.0004       2.5850322
       5705.9753       2.5945817
       5706.9502       2.6910084
       5707.9252       2.6680944
       5708.9001       2.6280022
       5709.8750       2.6274707
       5710.8499       2.6512085
       5711.8249       2.6190194
       5712.7998       2.6385853
       5713.7747       2.5156431
       5714.7497       2.5603369
       5715.7246       2.7568636
       5716.6995       2.6856595
       5717.6745       2.6110121
       5718.6494       2.5681632
       5719.6243       2.6061852
       5720.5992       2.5929403
       5721.5742       2.6204166
       5722.5491       2.5824776
       5723.5240       2.5725827
       5724.4990       2.6056104
       5725.4739       2.6745621
       5726.4488       2.6269949
       5727.4237       2.6277787
       5728.3987       2.5717726
       5729.3736       2.6195187
       5730.3485       2.6565054
       5731.3235       2.6778032
       5732.2984       2.6345454
       5733.2733       2.6032423
       5734.2482       2.5187328
       5735.2232       2.5991580
       5736.1981       2.6056874
       5737.1730       2.6806449
       5738.1480       2.5655394
       5739.1229       2.5143015
       5740.0978       2.5088360
       5741.0727       2.5259525
       5742.0477       2.5998281
       5743.0226       2.6931814
       5743.9975       2.7141358
       5744.9725       2.7178797
       5745.9474       2.6542577
       5746.9223       2.6039159
       5747.8973       2.6222017
       5748.8722       2.5789656
       5749.8471       2.5977857
       5750.8220       2.7195683
       5751.7970       2.7113539
       5752.7719       2.7272877
       5753.7468       2.7036691
       5754.7218       2.7212076
       5755.6967       2.6278482
       5756.6716       2.7079051
       5757.6465       2.8309351
       5758.6215       2.8435043
       5759.5964       2.8182764
       5760.5713       2.7912842
       5761.5463       2.6887298
       5762.5212       2.5967557
       5763.4961       2.5934281
       5764.4710       2.5459656
       5765.4460       2.4321827
       5766.4209       2.3836439
       5767.3958       2.2609033
       5768.3708       2.3629368
       5769.3457       2.4790525
       5770.3206       2.5301586
       5771.2956       2.6073068
       5772.2705       2.6307478
       5773.2454       2.5876993
       5774.2203       2.6267078
       5775.1953       2.7692592
       5776.1702       2.7648551
       5777.1451       2.6993343
       5778.1201       2.7291693
       5779.0950       2.7536093
       5780.0699       2.7655352
       5781.0448       2.6782908
       5782.0198       2.5487801
       5782.9947       2.7252990
       5783.9696       2.7775254
       5784.9446       2.6804213
       5785.9195       2.6523438
       5786.8944       2.6759259
       5787.8693       2.6197158
       5788.8443       2.7033322
       5789.8192       2.7604421
       5790.7941       2.6948754
       5791.7691       2.6415643
       5792.7440       2.7229221
       5793.7189       2.7278736
       5794.6938       2.8623138
       5795.6688       2.8839565
       5796.6437       2.7287973
       5797.6186       2.6208580
       5798.5936       2.7061676
       5799.5685       2.7430924
       5800.5434       2.9425007
       5801.5184       2.9198482
       5802.4933       2.8374601
       5803.4682       2.9053248
       5804.4431       2.8597120
       5805.4181       2.8535989
       5806.3930       2.8495088
       5807.3679       2.8435268
       5808.3429       2.7911510
       5809.3178       2.8705024
       5810.2927       2.7364516
       5811.2676       2.7328242
       5812.2426       2.9609004
       5813.2175       2.8267596
       5814.1924       2.8266801
       5815.1674       2.8552226
       5816.1423       2.8517320
       5817.1172       2.8970211
       5818.0921       2.8902794
       5819.0671       2.8990947
       5820.0420       2.8473649
       5821.0169       2.8391419
       5821.9919       2.8057733
       5822.9668       2.7658662
       5823.9417       2.8423327
       5824.9166       2.9386728
       5825.8916       2.8796822
       5826.8665       2.9131597
       5827.8414       2.7844967
       5828.8164       2.9685379
       5829.7913       2.8524296
       5830.7662       2.8737084
       5831.7412       2.9474646
       5832.7161       2.9251061
       5833.6910       2.8873396
       5834.6659       2.7846975
       5835.6409       2.7974635
       5836.6158       2.7991681
       5837.5907       2.6594439
       5838.5657       2.7025073
       5839.5406       2.6659059
       5840.5155       2.7280465
       5841.4904       2.7073321
       5842.4654       2.7428779
       5843.4403       2.7187162
       5844.4152       2.6923733
       5845.3902       2.6728725
       5846.3651       2.6895720
       5847.3400       2.6786188
       5848.3149       2.6837083
       5849.2899       2.7797263
       5850.2648       2.7740569
       5851.2397       2.7252250
       5852.2147       2.6668621
       5853.1896       2.7376466
       5854.1645       2.8166102
       5855.1394       2.7825121
       5856.1144       2.7066605
       5857.0893       2.8805404
       5858.0642       2.8937148
       5859.0392       2.8503663
       5860.0141       2.8407782
       5860.9890       2.8395361
       5861.9640       2.7474038
       5862.9389       2.8190872
       5863.9138       2.7934219
       5864.8887       2.7898480
       5865.8637       2.7636419
       5866.8386       2.7485491
       5867.8135       2.6109515
       5868.7885       2.5626085
       5869.7634       2.6231355
       5870.7383       2.4730548
       5871.7132       2.3697252
       5872.6882       2.2367586
       5873.6631       2.0881356
       5874.6380       1.8829367
       5875.6130       1.7199957
       5876.5879       1.5830717
       5877.5628       1.5962836
       5878.5377       1.6703810
       5879.5127       1.7253019
       5880.4876       1.6634206
       5881.4625       1.7106771
       5882.4375       1.8429885
       5883.4124       1.9037607
       5884.3873       1.9606115
       5885.3622       2.0803712
       5886.3372       2.2636203
       5887.3121       2.4468614
       5888.2870       2.4989467
       5889.2620       2.5733639
       5890.2369       2.6252103
       5891.2118       2.6593204
       5892.1868       2.7332088
       5893.1617       2.6534115
       5894.1366       2.6408626
       5895.1115       2.6147071
       5896.0865       2.5709194
       5897.0614       2.7028946
       5898.0363       2.7520574
       5899.0113       2.7261244
       5899.9862       2.5934288
       5900.9611       2.7300401
       5901.9360       2.6659126
       5902.9110       2.6803944
       5903.8859       2.7112625
       5904.8608       2.6619768
       5905.8358       2.6544985
       5906.8107       2.7735533
       5907.7856       2.7614719
       5908.7605       2.7868897
       5909.7355       2.8000603
       5910.7104       2.8442807
       5911.6853       2.8287985
       5912.6603       2.8044109
       5913.6352       2.7181990
       5914.6101       2.7994419
       5915.5850       2.7445373
       5916.5600       2.7664307
       5917.5349       2.7652223
       5918.5098       2.8000137
       5919.4848       2.7656683
       5920.4597       2.7588927
       5921.4346       2.7584373
       5922.4096       2.7582666
       5923.3845       2.8253496
       5924.3594       2.7740733
       5925.3343       2.7798949
       5926.3093       2.7838019
       5927.2842       2.8029340
       5928.2591       2.8572396
       5929.2341       2.9087027
       5930.2090       2.9567327
       5931.1839       3.0364817
       5932.1588       2.9368979
       5933.1338       2.8000549
       5934.1087       2.6703363
       5935.0836       2.8826381
       5936.0586       2.9117843
       5937.0335       2.9023912
       5938.0084       2.8337437
       5938.9833       2.8538009
       5939.9583       2.7789572
       5940.9332       2.7405093
       5941.9081       2.7426590
       5942.8831       2.8624306
       5943.8580       2.9040892
       5944.8329       2.8727021
       5945.8079       2.8281879
       5946.7828       2.9056716
       5947.7577       2.9377216
       5948.7326       2.8086266
       5949.7076       2.8041449
       5950.6825       2.8191268
       5951.6574       2.8484706
       5952.6324       2.8402488
       5953.6073       2.7876417
       5954.5822       2.9028652
       5955.5571       2.8767457
       5956.5321       2.8392749
       5957.5070       2.6859184
       5958.4819       2.9269000
       5959.4569       3.0952678
       5960.4318       3.0540364
       5961.4067       2.7712507
       5962.3816       2.8719759
       5963.3566       3.1366148
       5964.3315       3.1285154
       5965.3064       2.7552501
       5966.2814       2.7827750
       5967.2563       2.8617206
       5968.2312       2.9677171
       5969.2061       2.8878771
       5970.1811       2.7776734
       5971.1560       2.8114970
       5972.1309       2.7932700
       5973.1059       2.8452937
       5974.0808       2.8176248
       5975.0557       2.8691114
       5976.0307       2.8453849
       5977.0056       2.8724493
       5977.9805       2.9728008
       5978.9554       2.9313938
       5979.9304       3.1064919
       5980.9053       2.9316957
       5981.8802       3.0884904
       5982.8552       3.0706283
       5983.8301       3.0595292
       5984.8050       2.9541129
       5985.7799       2.9387722
       5986.7549       2.7847746
       5987.7298       2.8079844
       5988.7047       2.8487563
       5989.6797       2.8926284
       5990.6546       2.8268609
       5991.6295       2.7105546
       5992.6044       2.9489021
       5993.5794       3.0485365
       5994.5543       3.0812541
       5995.5292       2.6881337
       5996.5042       2.7765018
       5997.4791       2.7315440
       5998.4540       2.7515930
       5999.4289       3.0791378
       6000.4039       2.8287510
       6001.3788       2.9065113
       6002.3537       2.8662983
       6003.3287       2.7975286
       6004.3036       2.8063468
       6005.2785       3.0072151
       6006.2535       2.7588605
       6007.2284       2.8709313
       6008.2033       3.0479379
       6009.1782       2.9669727
       6010.1532       2.8678266
       6011.1281       2.8696368
       6012.1030       2.8670230
       6013.0780       2.8331551
       6014.0529       3.0726752
       6015.0278       3.2067543
       6016.0027       3.0698197
       6016.9777       3.3805371
       6017.9526       3.2625448
       6018.9275       2.9966216
       6019.9025       3.0322598
       6020.8774       3.0168395
       6021.8523       2.9311886
       6022.8272       3.0791558
       6023.8022       3.0804190
       6024.7771       2.9670726
       6025.7520       2.9144841
       6026.7270       3.1192862
       6027.7019       3.1542552
       6028.6768       3.0449954
       6029.6517       3.1063641
       6030.6267       3.1058277
       6031.6016       3.2303691
       6032.5765       3.1842479
       6033.5515       3.2183098
       6034.5264       3.1323208
       6035.5013       2.8558287
       6036.4763       3.1005126
       6037.4512       3.2160053
       6038.4261       3.0244227
       6039.4010       3.0570613
       6040.3760       3.0572080
       6041.3509       3.1814159
       6042.3258       3.1828619
       6043.3008       3.1779032
       6044.2757       3.0231874
       6045.2506       3.0977880
       6046.2255       3.0301224
       6047.2005       3.1499848
       6048.1754       3.0978143
       6049.1503       3.0720228
       6050.1253       3.0174870
       6051.1002       3.0578322
       6052.0751       3.0341339
       6053.0500       3.0277888
       6054.0250       3.1359297
       6054.9999       3.0673079
       6055.9748       3.0953421
       6056.9498       3.2869396
       6057.9247       3.2125144
       6058.8996       3.1452087
       6059.8745       3.0594056
       6060.8495       3.1780912
       6061.8244       3.1942738
       6062.7993       2.9735237
       6063.7743       3.1623492
       6064.7492       3.3191300
       6065.7241       3.0937810
       6066.6991       3.0763795
       6067.6740       2.9224088
       6068.6489       2.9255901
       6069.6238       3.1163299
       6070.5988       3.0135808
       6071.5737       3.1202880
       6072.5486       3.0940615
       6073.5236       3.0750182
       6074.4985       3.1529930
       6075.4734       3.0913626
       6076.4483       3.0342222
       6077.4233       3.0681755
       6078.3982       3.0556034
       6079.3731       3.0381097
       6080.3481       3.0728729
       6081.3230       3.0388594
       6082.2979       3.0938868
       6083.2728       3.0426501
       6084.2478       3.1418498
       6085.2227       3.1364329
       6086.1976       3.1346303
       6087.1726       3.1583847
       6088.1475       3.1117192
       6089.1224       3.1319075
       6090.0973       3.2006775
       6091.0723       3.1081315
       6092.0472       3.1802321
       6093.0221       3.1022179
       6093.9971       3.1782922
       6094.9720       3.1614810
       6095.9469       3.2123243
       6096.9219       3.2072185
       6097.8968       3.0436234
       6098.8717       3.2095775
       6099.8466       3.2169356
       6100.8216       3.2660958
       6101.7965       3.7077332
       6102.7714       4.4316825
       6103.7464       4.5126162
       6104.7213       3.5745478
       6105.6962       3.3552000
       6106.6711       3.2913572
       6107.6461       3.1678163
       6108.6210       3.1577765
       6109.5959       3.2261591
       6110.5709       3.1508476
       6111.5458       3.1316102
       6112.5207       2.9978940
       6113.4956       3.2041180
       6114.4706       3.3052434
       6115.4455       3.1106494
       6116.4204       3.1837765
       6117.3954       3.1190081
       6118.3703       3.2372728
       6119.3452       3.2381991
       6120.3202       3.0794697
       6121.2951       3.0354968
       6122.2700       3.1311133
       6123.2449       3.3368068
       6124.2199       3.0635463
       6125.1948       3.1961542
       6126.1697       3.1821213
       6127.1447       3.0847103
       6128.1196       3.1488970
       6129.0945       3.0281888
       6130.0694       3.1169683
       6131.0444       3.3109801
       6132.0193       3.2883003
       6132.9942       3.2797719
       6133.9692       3.0483616
       6134.9441       3.1126276
       6135.9190       3.3187637
       6136.8939       3.1951372
       6137.8689       3.2064824
       6138.8438       3.1733268
       6139.8187       3.1543802
       6140.7937       3.2051777
       6141.7686       3.3127887
       6142.7435       3.3446939
       6143.7184       3.1931210
       6144.6934       3.1352817
       6145.6683       3.1232423
       6146.6432       3.0468570
       6147.6182       2.9824794
       6148.5931       2.9911801
       6149.5680       2.9148039
       6150.5430       2.9700331
       6151.5179       3.0264801
       6152.4928       2.9197886
       6153.4677       2.9304085
       6154.4427       2.9621102
       6155.4176       3.0723367
       6156.3925       2.9448960
       6157.3675       2.9445508
       6158.3424       3.0696378
       6159.3173       3.0643778
       6160.2922       2.9965679
       6161.2672       2.9811263
       6162.2421       3.1237254
       6163.2170       2.9960770
       6164.1920       3.0947125
       6165.1669       3.1600782
       6166.1418       2.9912234
       6167.1167       3.1015856
       6168.0917       3.1295340
       6169.0666       3.1636009
       6170.0415       3.2039712
       6171.0165       3.1888264
       6171.9914       3.2390779
       6172.9663       3.0341432
       6173.9412       2.9473619
       6174.9162       3.0863107
       6175.8911       3.0819598
       6176.8660       3.0472118
       6177.8410       3.1246516
       6178.8159       2.9601463
       6179.7908       3.0687780
       6180.7658       2.9377835
       6181.7407       3.1501203
       6182.7156       3.1353626
       6183.6905       3.0114964
       6184.6655       2.9403963
       6185.6404       2.9731684
       6186.6153       3.1004807
       6187.5903       3.1676320
       6188.5652       3.1030001
       6189.5401       3.2075056
       6190.5150       3.1832183
       6191.4900       2.9928160
       6192.4649       3.1693178
       6193.4398       3.1396830
       6194.4148       3.1395997
       6195.3897       3.2174720
       6196.3646       3.1104300
       6197.3395       3.3478162
       6198.3145       3.2419853
       6199.2894       3.3365142
       6200.2643       3.0895356
       6201.2393       3.1102699
       6202.2142       3.3966903
       6203.1891       3.0909492
       6204.1640       2.9401437
       6205.1390       3.0848705
       6206.1139       3.1278084
       6207.0888       3.1421691
       6208.0638       3.0357032
       6209.0387       3.2940177
       6210.0136       3.1294621
       6210.9886       3.0994088
       6211.9635       3.1174611
       6212.9384       3.1926597
       6213.9133       3.0826872
       6214.8883       3.1713485
       6215.8632       3.1752839
       6216.8381       3.2488898
       6217.8131       3.1758226
       6218.7880       3.1594083
       6219.7629       3.2136577
       6220.7378       3.1527200
       6221.7128       2.9935439
       6222.6877       3.0596148
       6223.6626       2.8508774
       6224.6376       2.9701584
       6225.6125       2.7898650
       6226.5874       2.4722296
       6227.5623       2.2160915
       6228.5373       2.0657023
       6229.5122       1.7581140
       6230.4871       1.3897197
       6231.4621       1.3570219
       6232.4370             NaN
       6233.4119             NaN
       6234.3868             NaN
       6235.3618             NaN
       6236.3367             NaN
       6237.3116             NaN
       6238.2866             NaN
       6239.2615             NaN
       6240.2364             NaN
       6241.2114             NaN
       6242.1863             NaN
       6243.1612             NaN
       6244.1361             NaN
       6245.1111             NaN
       6246.0860             NaN
       6247.0609             NaN
       6248.0359             NaN
       6249.0108             NaN
       6249.9857             NaN
       6250.9606             NaN
       6251.9356             NaN
       6252.9105             NaN
       6253.8854             NaN
       6254.8604             NaN
       6255.8353             NaN
       6256.8102             NaN
       6257.7851             NaN
       6258.7601             NaN
       6259.7350             NaN
       6260.7099             NaN
       6261.6849             NaN
       6262.6598             NaN
       6263.6347             NaN
       6264.6097             NaN
       6265.5846             NaN
       6266.5595             NaN
       6267.5344             NaN
       6268.5094             NaN
       6269.4843             NaN
       6270.4592             NaN
       6271.4342             NaN
       6272.4091             NaN
       6273.3840             NaN
       6274.3589             NaN
       6275.3339             NaN
       6276.3088             NaN
       6277.2837             NaN
       6278.2587             NaN
       6279.2336             NaN
       6280.2085             NaN
       6281.1834             NaN
       6282.1584             NaN
       6283.1333             NaN
       6284.1082             NaN
       6285.0832             NaN
       6286.0581             NaN
       6287.0330             NaN
       6288.0079             NaN
       6288.9829             NaN
       6289.9578             NaN
       6290.9327             NaN
       6291.9077             NaN
       6292.8826             NaN
       6293.8575             NaN
       6294.8325             NaN
       6295.8074             NaN
       6296.7823             NaN
       6297.7572             NaN
       6298.7322             NaN
       6299.7071             NaN
       6300.6820             NaN
       6301.6570             NaN
       6302.6319             NaN
       6303.6068             NaN
       6304.5817             NaN
       6305.5567             NaN
       6306.5316             NaN
       6307.5065             NaN
       6308.4815             NaN
       6309.4564             NaN
       6310.4313             NaN
       6311.4062             NaN
       6312.3812             NaN
       6313.3561             NaN
       6314.3310             NaN
       6315.3060             NaN
       6316.2809             NaN
       6317.2558             NaN
       6318.2307             NaN
       6319.2057       3.2465645
       6320.1806       3.4218669
       6321.1555       3.5001748
       6322.1305       3.3373621
       6323.1054       3.5050981
       6324.0803       3.4900303
       6325.0553       3.6274882
       6326.0302       3.4925163
       6327.0051       3.4136070
       6327.9800       3.4911096
       6328.9550       3.5936264
       6329.9299       3.3889432
       6330.9048       3.3518258
       6331.8798       3.2642199
       6332.8547       3.3041613
       6333.8296       3.3730833
       6334.8045       3.2333048
       6335.7795       3.4732366
       6336.7544       3.2076765
       6337.7293       3.3953728
       6338.7043       3.5131083
       6339.6792       3.3961222
       6340.6541       3.2411377
       6341.6290       3.4234155
       6342.6040       3.4527076
       6343.5789       3.4721843
       6344.5538       3.5107625
       6345.5288       3.4052622
       6346.5037       3.3878545
       6347.4786       3.2584977
       6348.4535       3.2551939
       6349.4285       3.2021751
       6350.4034       3.2233976
       6351.3783       3.1500079
       6352.3533       3.0847887
       6353.3282       3.0421718
       6354.3031       2.7659947
       6355.2781       3.0632120
       6356.2530       3.4750190
       6357.2279       3.1024651
       6358.2028       3.6836314
       6359.1778       3.1683416
       6360.1527       3.4117976
       6361.1276       3.2034839
       6362.1026       3.2324137
       6363.0775       3.1407123
       6364.0524       2.9889844
       6365.0273       3.2453657
       6366.0023       3.1420580
       6366.9772       3.4384213
       6367.9521       3.2492538
       6368.9271       3.3911154
       6369.9020       3.3538396
       6370.8769       3.3516247
       6371.8518       3.4115414
       6372.8268       3.5223248
       6373.8017       3.5180477
       6374.7766       3.6883919
       6375.7516       3.2661792
       6376.7265       3.3138064
       6377.7014       3.6242914
       6378.6763       3.3226963
       6379.6513       3.5431723
       6380.6262       3.4685977
       6381.6011       3.4591256
       6382.5761       3.4393626
       6383.5510       3.5655874
       6384.5259       3.4052689
       6385.5009       3.6323211
       6386.4758       3.4631828
       6387.4507       3.5183156
       6388.4256       3.5547999
       6389.4006       3.7052739
       6390.3755       3.8838716
       6391.3504       3.4604409
       6392.3254       3.2984175
       6393.3003       3.6058221
       6394.2752       3.8332548
       6395.2501       3.3365350
       6396.2251       3.4465395
       6397.2000       3.2886262
       6398.1749       3.1772530
       6399.1499       3.3628676
       6400.1248       3.3265594
       6401.0997       3.3760395
       6402.0746       3.3364894
       6403.0496       3.2948624
       6404.0245       3.5184223
       6404.9994       3.5658513
       6405.9744       3.4071535
       6406.9493       3.3622726
       6407.9242       3.3026932
       6408.8991       3.2005414
       6409.8741       3.2130511
       6410.8490       3.5057857
       6411.8239       3.6403185
       6412.7989       3.4586361
       6413.7738       3.8025050
       6414.7487       3.0208515
       6415.7237       3.2829795
       6416.6986       3.8151277
       6417.6735       3.5040392
       6418.6484       3.3792948
       6419.6234       3.4218982
       6420.5983       3.4809042
       6421.5732       3.4346600
       6422.5482       3.3591694
       6423.5231       3.3121894
       6424.4980       3.4718149
       6425.4729       3.3129856
       6426.4479       3.3436107
       6427.4228       3.3446055
       6428.3977       3.4683235
       6429.3727       3.7124305
       6430.3476       3.5207067
       6431.3225       3.3030575
       6432.2974       3.3703822
       6433.2724       3.4022729
       6434.2473       3.6251721
       6435.2222       3.5849431
       6436.1972       3.5159058
       6437.1721       3.4816826
       6438.1470       3.4550256
       6439.1220       3.6286872
       6440.0969       3.2748669
       6441.0718       3.2878667
       6442.0467       3.1831771
       6443.0217       3.4788340
       6443.9966       3.6060573
       6444.9715       3.3622877
       6445.9465       3.4169806
       6446.9214       3.5858492
       6447.8963       3.3794290
       6448.8712       3.4554904
       6449.8462       3.3065034
       6450.8211       3.3660108
       6451.7960       3.7655774
       6452.7710       3.5235551
       6453.7459       3.3077779
       6454.7208       3.3175333
       6455.6957       3.3479169
       6456.6707       3.5263244
       6457.6456       3.5518481
       6458.6205       3.4778812
       6459.5955       3.4435540
       6460.5704       3.3501861
       6461.5453       3.4491828
       6462.5202       3.5321407
       6463.4952       3.3491916
       6464.4701       3.3128856
       6465.4450       3.3572934
       6466.4200       3.3350748
       6467.3949       3.3983494
       6468.3698       3.5272100
       6469.3448       3.6729493
       6470.3197       3.6163500
       6471.2946       3.6594863
       6472.2695       3.9532799
       6473.2445       3.6199524
       6474.2194       3.3810724
       6475.1943       3.4945064
       6476.1693       3.3633371
       6477.1442       3.4921207
       6478.1191       3.4758726
       6479.0940       3.4536909
       6480.0690       3.3740775
       6481.0439       3.3501704
       6482.0188       3.3495522
       6482.9938       3.3156012
       6483.9687       3.2524656
       6484.9436       3.2544089
       6485.9185       3.1216660
       6486.8935       3.0432094
       6487.8684       3.3620587
       6488.8433       3.2840570
       6489.8183       2.5815850
       6490.7932       3.6117083
       6491.7681       3.3641586
       6492.7430       3.4648174
       6493.7180       3.7149389
       6494.6929       3.8486053
       6495.6678       3.5377055
       6496.6428       4.0879343
       6497.6177       3.7248000
       6498.5926       3.9750063
       6499.5676       3.7723706
       6500.5425       3.6308375
       6501.5174       3.6101078
       6502.4923       3.6942169
       6503.4673       3.4778277
       6504.4422       3.8988486
       6505.4171       3.5868557
       6506.3921       3.7155866
       6507.3670       3.6409057
       6508.3419       3.7102350
       6509.3168       3.6269944
       6510.2918       3.6346942
       6511.2667       3.5694053
       6512.2416       3.5677054
       6513.2166       3.6133030
       6514.1915       3.7567023
       6515.1664       3.7119463
       6516.1413       3.5797408
       6517.1163       3.5895853
       6518.0912       3.4581835
       6519.0661       3.4135463
       6520.0411       3.4391373
       6521.0160       3.4551548
       6521.9909       3.2960879
       6522.9658       3.6481651
       6523.9408       3.5011088
       6524.9157       3.4874618
       6525.8906       3.4710246
       6526.8656       3.4933016
       6527.8405       3.5130554
       6528.8154       3.5067559
       6529.7904       3.7666422
       6530.7653       3.9072200
       6531.7402       3.5299357
       6532.7151       3.8428081
       6533.6901       3.8672112
       6534.6650       4.0181980
       6535.6399       3.5199467
       6536.6149       3.7946297
       6537.5898       3.8828894
       6538.5647       3.8794804
       6539.5396       3.9050993
       6540.5146       3.9684592
       6541.4895       4.0986273
       6542.4644       3.8964510
       6543.4394       3.5981715
       6544.4143       3.4363409
       6545.3892       3.4513854
       6546.3641       3.7145627
       6547.3391       3.4865831
       6548.3140       3.5837206
       6549.2889       3.5889236
       6550.2639       3.6081466
       6551.2388       3.8289321
       6552.2137       3.8437256
       6553.1886       4.5466303
       6554.1636       4.8161010
       6555.1385       4.6117898
       6556.1134       4.9777835
       6557.0884       4.4373085
       6558.0633       4.0202410
       6559.0382       3.9420538
       6560.0132       3.7129037
       6560.9881       3.6620110
       6561.9630       3.4059496
       6562.9379       3.5311906
       6563.9129       3.4821698
       6564.8878       3.5029976
       6565.8627       3.5459000
       6566.8377       3.5699623
       6567.8126       3.7028736
       6568.7875       3.7538665
       6569.7624       4.1549504
       6570.7374       4.0856154
       6571.7123       4.0385512
       6572.6872       4.1012991
       6573.6622       4.4114821
       6574.6371       4.6458083
       6575.6120       4.6823320
       6576.5869       4.6784088
       6577.5619       4.5334162
       6578.5368       4.2555350
       6579.5117       4.2596042
       6580.4867       4.1304694
       6581.4616       4.3237745
       6582.4365       4.0797128
       6583.4114       3.5388591
       6584.3864       3.8074342
       6585.3613       3.5435435
       6586.3362       3.8256554
       6587.3112       3.4879926
       6588.2861       3.4225052
       6589.2610       3.3305627
       6590.2360       3.5730157
       6591.2109       3.6947915
       6592.1858       3.6177576
       6593.1607       3.5462917
       6594.1357       3.5805584
       6595.1106       3.5563999
       6596.0855       3.5877415
       6597.0605       3.5216245
       6598.0354       3.6735463
       6599.0103       3.5155600
       6599.9852       3.5471739
       6600.9602       3.3861316
       6601.9351       3.2142778
       6602.9100       3.3750066
       6603.8850       3.5353927
       6604.8599       3.5837076
       6605.8348       3.6207894
       6606.8097       3.6117893
       6607.7847       3.5218396
       6608.7596       3.6465890
       6609.7345       3.7800471
       6610.7095       3.8687572
       6611.6844       3.7306143
       6612.6593       3.9840538
       6613.6343       3.5721272
       6614.6092       3.5384168
       6615.5841       3.7166548
       6616.5590       3.7300824
       6617.5340       3.5990250
       6618.5089       3.4462672
       6619.4838       3.3645198
       6620.4588       3.4130232
       6621.4337       3.5958297
       6622.4086       3.5302643
       6623.3835       3.7372627
       6624.3585       3.4321321
       6625.3334       3.6197736
       6626.3083       3.4775602
       6627.2833       3.3857289
       6628.2582       3.6604875
       6629.2331       3.5856255
       6630.2080       3.5012274
       6631.1830       3.5697437
       6632.1579       3.6262527
       6633.1328       3.6459289
       6634.1078       3.6032750
       6635.0827       3.6584620
       6636.0576       3.4933041
       6637.0325       3.6212435
       6638.0075       3.5327057
       6638.9824       3.5901614
       6639.9573       3.9160627
       6640.9323       3.7470811
       6641.9072       3.6202383
       6642.8821       3.6492856
       6643.8571       3.6137527
       6644.8320       3.7243217
       6645.8069       3.9086576
       6646.7818       3.6888136
       6647.7568       3.8791852
       6648.7317       3.6296733
       6649.7066       3.7168435
       6650.6816       3.6664940
       6651.6565       3.7020220
       6652.6314       3.6470940
       6653.6063       3.6574824
       6654.5813       3.8572309
       6655.5562       3.5839167
       6656.5311       3.4999063
       6657.5061       3.5840897
       6658.4810       3.6516957
       6659.4559       3.7197378
       6660.4308       3.7322195
       6661.4058       3.5791376
       6662.3807       3.6885634
       6663.3556       3.6412625
       6664.3306       3.8268812
       6665.3055       3.5400191
       6666.2804       3.6038281
       6667.2553       3.5865244
       6668.2303       3.8543022
       6669.2052       3.5508669
       6670.1801       3.5419116
       6671.1551       3.4610863
       6672.1300       3.5486917
       6673.1049       3.5858863
       6674.0799       3.4898298
       6675.0548       3.5468321
       6676.0297       3.6877457
       6677.0046       3.5737834
       6677.9796       3.6194026
       6678.9545       3.5999391
       6679.9294       3.4342086
       6680.9044       3.4603756
       6681.8793       3.4769009
       6682.8542       3.5079500
       6683.8291       3.6593820
       6684.8041       3.4878927
       6685.7790       3.3638980
       6686.7539       3.3603270
       6687.7289       3.5585477
       6688.7038       3.6080032
       6689.6787       3.3418349
       6690.6536       3.4325027
       6691.6286       3.5200378
       6692.6035       3.3799787
       6693.5784       3.5972328
       6694.5534       3.5534569
       6695.5283       3.4900951
       6696.5032       3.4586444
       6697.4781       3.4165263
       6698.4531       3.4429505
       6699.4280       3.5219093
       6700.4029       3.4470987
       6701.3779       3.5745399
       6702.3528       3.4408041
       6703.3277       3.5957835
       6704.3027       3.6539949
       6705.2776       3.4765968
       6706.2525       3.7716198
       6707.2274       3.5844986
       6708.2024       3.7249917
       6709.1773       3.4929939
       6710.1522       3.7108756
       6711.1272       3.7071125
       6712.1021       3.6065101
       6713.0770       3.4548393
       6714.0519       3.5508437
       6715.0269       3.4614307
       6716.0018       3.4928464
       6716.9767       3.7034915
       6717.9517       3.6920303
       6718.9266       3.5611868
       6719.9015       3.6313432
       6720.8764       3.8312840
       6721.8514       3.8625400
       6722.8263       3.8339915
       6723.8012       3.7964516
       6724.7762       3.7846801
       6725.7511       3.7097246
       6726.7260       3.8082912
       6727.7009       3.7348608
       6728.6759       3.6744361
       6729.6508       3.4632261
       6730.6257       3.4971356
       6731.6007       3.4726485
       6732.5756       3.6059622
       6733.5505       3.6104038
       6734.5255       3.6149138
       6735.5004       3.6229512
       6736.4753       3.6469651
       6737.4502       3.5762574
       6738.4252       3.5315792
       6739.4001       3.5405789
       6740.3750       3.7072402
       6741.3500       3.6692735
       6742.3249       3.6012098
       6743.2998       3.5194643
       6744.2747       3.4718989
       6745.2497       3.5596457
       6746.2246       3.4475561
       6747.1995       3.4301125
       6748.1745       3.3863052
       6749.1494       3.3840370
       6750.1243       3.2808550
       6751.0992       3.3483299
       6752.0742       3.2884727
       6753.0491       3.4649860
       6754.0240       3.4060694
       6754.9990       3.6036993
       6755.9739       3.5758720
       6756.9488       3.4152143
       6757.9237       3.4383479
       6758.8987       3.4180535
       6759.8736       3.6944792
       6760.8485       3.6494562
       6761.8235       3.4837212
       6762.7984       3.7904716
       6763.7733       3.7509659
       6764.7483       3.5661744
       6765.7232       3.6552607
       6766.6981       3.6993809
       6767.6730       3.6694391
       6768.6480       3.7392986
       6769.6229       3.6904179
       6770.5978       3.8135064
       6771.5728       3.6320596
       6772.5477       3.6962221
       6773.5226       3.6577217
       6774.4975       3.5238946
       6775.4725       3.5603210
       6776.4474       3.3319751
       6777.4223       3.4198012
       6778.3973       3.5407802
       6779.3722       3.6178124
       6780.3471       3.4447364
       6781.3220       3.7408947
       6782.2970       3.6423945
       6783.2719       3.7383934
       6784.2468       3.5988916
       6785.2218       3.5952514
       6786.1967       3.7064093
       6787.1716       3.4468644
       6788.1466       3.6812398
       6789.1215       3.4995545
       6790.0964       3.6107851
       6791.0713       3.6827848
       6792.0463       3.6576041
       6793.0212       3.8665685
       6793.9961       3.5328048
       6794.9711       3.6803410
       6795.9460       3.1506839
       6796.9209       3.5657749
       6797.8958       3.6641387
       6798.8708       3.5466753
       6799.8457       3.6851108
       6800.8206       3.7376857
       6801.7956       3.5356801
       6802.7705       3.4839928
       6803.7454       3.6074554
       6804.7203       3.6534850
       6805.6953       3.7304853
       6806.6702       3.3153056
       6807.6451       3.9937153
       6808.6201       4.1909096
       6809.5950       3.6700832
       6810.5699       3.6851177
       6811.5448       3.6677871
       6812.5198       3.6558536
       6813.4947       3.4327044
       6814.4696       3.6461965
       6815.4446       3.5168038
       6816.4195       3.9368761
       6817.3944       3.8598257
       6818.3694       3.7211280
       6819.3443       3.6256835
       6820.3192       3.7419372
       6821.2941       3.8894083
       6822.2691       3.4793097
       6823.2440       3.6109145
       6824.2189       3.8392573
       6825.1939       3.5404160
       6826.1688       3.6866578
       6827.1437       3.5281457
       6828.1186       3.7415628
       6829.0936       3.6019991
       6830.0685       3.6121750
       6831.0434       3.6384300
       6832.0184       3.6578955
       6832.9933       3.4921435
       6833.9682       3.6208300
       6834.9431       3.6624029
       6835.9181       3.7263216
       6836.8930       3.6626404
       6837.8679       3.7441622
       6838.8429       3.7335037
       6839.8178       3.4159382
       6840.7927       3.2807945
       6841.7676       3.9741040
       6842.7426       3.9469925
       6843.7175       4.3693073
       6844.6924       3.0327657
       6845.6674       4.1993850
       6846.6423       4.2550846
       6847.6172       3.7677379
       6848.5922       3.6235350
       6849.5671       3.7861320
       6850.5420       3.5719287
       6851.5169       3.4705451
       6852.4919       4.0931852
       6853.4668       3.7571889
       6854.4417       3.7183547
       6855.4167       3.6777907
       6856.3916       3.6135789
       6857.3665       3.6249809
       6858.3414       3.7855109
       6859.3164       3.9151606
       6860.2913       3.6263228
       6861.2662       3.9643004
       6862.2412       3.6804349
       6863.2161       3.6644769
       6864.1910       3.6847922
       6865.1659       3.6948491
       6866.1409       3.7807976
       6867.1158       3.6549555
       6868.0907       3.8849673
       6869.0657       3.7995351
       6870.0406       3.7064180
       6871.0155       3.7347826
       6871.9904       3.6520739
       6872.9654       3.9238691
       6873.9403       3.9218405
       6874.9152       3.7783028
       6875.8902       3.6423165
       6876.8651       3.9181398
       6877.8400       4.0431680
       6878.8150       4.0169836
       6879.7899       3.9355507
       6880.7648       3.9099992
       6881.7397       4.0368226
       6882.7147       3.8658987
       6883.6896       3.8450463
       6884.6645       3.7547581
       6885.6395       3.8645842
       6886.6144       3.9572965
       6887.5893       4.4417911
       6888.5642       4.1904683
       6889.5392       3.5255721
       6890.5141       4.3051298
       6891.4890       3.9879483
       6892.4640       3.9642394
       6893.4389       3.8676496
       6894.4138       3.6494300
       6895.3887       3.7045907
       6896.3637       3.8484455
       6897.3386       3.8745913
       6898.3135       3.9663015
       6899.2885       3.9400858
       6900.2634       3.7562591
       6901.2383       3.9843900
       6902.2132       3.7400374
       6903.1882       3.8159750
       6904.1631       4.0779342
       6905.1380       3.7507504
       6906.1130       3.8188703
       6907.0879       3.9583367
       6908.0628       3.8402070
       6909.0378       3.8303248
       6910.0127       3.3812992
       6910.9876       3.4020589
       6911.9625       3.2535527
       6912.9375       3.5999525
       6913.9124       3.8489127
       6914.8873       2.9498078
       6915.8623       4.3912873
       6916.8372       4.2608692
       6917.8121       3.9661897
       6918.7870       3.7760801
       6919.7620       3.8702973
       6920.7369       3.6397141
       6921.7118       3.7926392
       6922.6868       3.8922239
       6923.6617       3.8948003
       6924.6366       3.9838828
       6925.6115       3.9086444
       6926.5865       4.0391252
       6927.5614       3.8919723
       6928.5363       3.9913269
       6929.5113       3.9303012
       6930.4862       3.7420333
       6931.4611       3.6752998
       6932.4360       3.6697986
       6933.4110       4.2829503
       6934.3859       4.0138336
       6935.3608       4.0222414
       6936.3358       3.6797274
       6937.3107       3.7868937
       6938.2856       3.7263230
       6939.2606       3.4671977
       6940.2355       4.1529096
       6941.2104       4.3354178
       6942.1853       3.8395067
       6943.1603       3.5944845
       6944.1352       3.9353999
       6945.1101       3.7782081
       6946.0851       3.8628230
       6947.0600       3.9382860
       6948.0349       3.8964737
       6949.0098       3.9249966
       6949.9848       3.8820565
       6950.9597       3.9210687
       6951.9346       3.9517860
       6952.9096       3.9751865
       6953.8845       3.9579549
       6954.8594       3.9589590
       6955.8343       3.8469676
       6956.8093       4.0995960
       6957.7842       3.9778310
       6958.7591       3.9798496
       6959.7341       3.8503875
       6960.7090       3.8801669
       6961.6839       3.8966731
       6962.6589       3.9248053
       6963.6338       3.8165314
       6964.6087       3.9500320
       6965.5836       3.7901599
       6966.5586       3.8877194
       6967.5335       3.8745008
       6968.5084       4.0662345
       6969.4834       3.8040999
       6970.4583       3.8664990
       6971.4332       3.9204610
       6972.4081       3.8782138
       6973.3831       3.9640982
       6974.3580       3.3806869
       6975.3329       3.5522534
       6976.3079       3.7357956
       6977.2828       3.9787482
       6978.2577       4.1096737
       6979.2326       4.1376747
       6980.2076       3.8397899
       6981.1825       3.9192487
       6982.1574       4.0838324
       6983.1324       3.8030186
       6984.1073       3.9843362
       6985.0822       3.8647616
       6986.0571       3.8485001
       6987.0321       3.8398638
       6988.0070       3.8793328
       6988.9819       3.9300665
       6989.9569       3.9135568
       6990.9318       4.0065466
       6991.9067       4.0132231
       6992.8817       3.7362491
       6993.8566       3.7674640
       6994.8315       3.8681220
       6995.8064       3.9172745
       6996.7814       4.0708465
       6997.7563       3.9093222
       6998.7312       4.1137323
       6999.7062       4.0432539
       7000.6811       4.1236776
       7001.6560       4.2246691
       7002.6309       4.2274187
       7003.6059       4.2597449
       7004.5808       3.9294757
       7005.5557       3.8033177
       7006.5307       4.0996968
       7007.5056       3.7511028
       7008.4805       3.7554012
       7009.4554       3.8832166
       7010.4304       4.0177177
       7011.4053       4.0403959
       7012.3802       3.7967364
       7013.3552       4.1822511
       7014.3301       3.9280370
       7015.3050       3.8550585
       7016.2799       3.8397659
       7017.2549       4.0425348
       7018.2298       3.8453992
       7019.2047       3.9283983
       7020.1797       4.0369659
       7021.1546       3.9686930
       7022.1295       3.8655771
       7023.1045       3.9336265
       7024.0794       3.9311656
       7025.0543       4.0808820
       7026.0292       3.9393726
       7027.0042       4.1278985
       7027.9791       4.0051301
       7028.9540       4.0347304
       7029.9290       4.1018192
       7030.9039       4.0026313
       7031.8788       3.9820187
       7032.8537       3.9876818
       7033.8287       4.0896782
       7034.8036       4.0534846
       7035.7785       4.1111961
       7036.7535       3.9386382
       7037.7284       4.0960052
       7038.7033       4.0429005
       7039.6782       3.9695530
       7040.6532       3.8958755
       7041.6281       4.0372035
       7042.6030       4.3336077
       7043.5780       4.0802536
       7044.5529       3.7785987
       7045.5278       4.0211469
       7046.5027       4.0267554
       7047.4777       3.8141909
       7048.4526       3.9069868
       7049.4275       3.8743154
       7050.4025       4.0575916
       7051.3774       3.8354758
       7052.3523       3.7758351
       7053.3273       3.9240039
       7054.3022       3.7983538
       7055.2771       3.8366950
       7056.2520       3.7770927
       7057.2270       3.8756200
       7058.2019       3.6557006
       7059.1768       3.8360311
       7060.1518       3.8015331
       7061.1267       3.7135579
       7062.1016       3.8406230
       7063.0765       4.0082239
       7064.0515       3.7457758
       7065.0264       3.8880464
       7066.0013       3.9393593
       7066.9763       3.9615864
       7067.9512       4.1222372
       7068.9261       4.0475253
       7069.9010       3.7767112
       7070.8760       4.1200407
       7071.8509       4.2224060
       7072.8258       4.1671094
       7073.8008       4.0989958
       7074.7757       4.0054490
       7075.7506       3.7617780
       7076.7255       3.7107695
       7077.7005       3.3650021
       7078.6754       2.9139556
       7079.6503       3.4075210
       7080.6253       3.6675797
       7081.6002       4.0663329
       7082.5751       3.6313368
       7083.5501       3.9809303
       7084.5250       3.8427612
       7085.4999       3.9049994
       7086.4748       3.9972653
       7087.4498       3.8938077
       7088.4247       4.0329988
       7089.3996       3.7886633
       7090.3746       3.9102978
       7091.3495       3.8985378
       7092.3244       3.8336195
       7093.2993       3.8102252
       7094.2743       3.6978311
       7095.2492       3.5575536
       7096.2241       3.8073542
       7097.1991       3.9669119
       7098.1740       3.8925646
       7099.1489       3.8764010
       7100.1238       3.7871281
       7101.0988       3.9744693
       7102.0737       3.8019346
       7103.0486       3.9802006
       7104.0236       3.8515774
       7104.9985       3.7901407
       7105.9734       4.0847031
       7106.9483       3.7918149
       7107.9233       4.2135786
       7108.8982       4.1242398
       7109.8731       4.1577601
       7110.8481       3.9344326
       7111.8230       4.0556864
       7112.7979       3.9368454
       7113.7729       3.9524297
       7114.7478       3.7222934
       7115.7227       4.0017716
       7116.6976       3.8489654
       7117.6726       3.9975217
       7118.6475       3.7815237
       7119.6224       3.8206889
       7120.5974       3.6843599
       7121.5723       4.0145345
       7122.5472       3.8046149
       7123.5221       3.7406686
       7124.4971       3.8884480
       7125.4720       3.8256906
       7126.4469       4.0280062
       7127.4219       3.8207573
       7128.3968       3.7954888
       7129.3717       3.8920833
       7130.3466       3.7289017
       7131.3216       3.7983074
       7132.2965       3.7275384
       7133.2714       3.8067542
       7134.2464       4.0263304
       7135.2213       3.8896242
       7136.1962       4.0053021
       7137.1712       3.9501635
       7138.1461       3.9622087
       7139.1210       3.8356851
       7140.0959       3.8927794
       7141.0709       3.8528306
       7142.0458       3.9090099
       7143.0207       3.7914837
       7143.9957       3.8048375
       7144.9706       3.8536072
       7145.9455       3.9187370
       7146.9204       3.8840710
       7147.8954       3.6646660
       7148.8703       3.8202818
       7149.8452       3.9875440
       7150.8202       3.7954257
       7151.7951       3.8617329
       7152.7700       3.8812779
       7153.7449       3.7562187
       7154.7199       3.7826770
       7155.6948       3.7399883
       7156.6697       3.8627820
       7157.6447       3.9854577
       7158.6196       3.9588716
       7159.5945       3.9256009
       7160.5694       4.0289488
       7161.5444       3.9874921
       7162.5193       3.9503821
       7163.4942       3.9370687
       7164.4692       3.8182238
       7165.4441       4.1065913
       7166.4190       4.0180616
       7167.3940       3.8298033
       7168.3689       3.9280059
       7169.3438       4.0798722
       7170.3187       3.9926087
       7171.2937       3.9720983
       7172.2686       4.0652589
       7173.2435       3.9133826
       7174.2185       3.9430631
       7175.1934       4.0195520
       7176.1683       3.7813711
       7177.1432       3.8792801
       7178.1182       3.8568485
       7179.0931       4.0307710
       7180.0680       4.0388979
       7181.0430       4.0427040
       7182.0179       4.2796564
       7182.9928       4.0105370
       7183.9677       3.7471539
       7184.9427       4.2782705
       7185.9176       4.1107418
       7186.8925       3.7209671
       7187.8675       4.1979674
       7188.8424       4.1127080
       7189.8173       3.9303725
       7190.7922       4.0793121
       7191.7672       3.8630777
       7192.7421       3.9726965
       7193.7170       3.9085292
       7194.6920       4.3230786
       7195.6669       3.9083613
       7196.6418       3.8342665
       7197.6168       4.4126867
       7198.5917       4.4255016
       7199.5666       4.5337912
       7200.5415       4.3466488
       7201.5165       4.0092623
       7202.4914       4.3877755
       7203.4663       4.1463146
       7204.4413       4.1552083
       7205.4162       4.0323730
       7206.3911       4.2151553
       7207.3660       4.1005122
       7208.3410       4.0497425
       7209.3159       4.1703071
       7210.2908       3.8053458
       7211.2658       4.2792480
       7212.2407       4.0611039
       7213.2156       4.0416004
       7214.1905       4.0309451
       7215.1655       4.1872138
       7216.1404       4.0420310
       7217.1153       4.0438758
       7218.0903       4.1829905
       7219.0652       4.2079301
       7220.0401       4.1668260
       7221.0150       4.1999179
       7221.9900       4.2246881
       7222.9649       4.3537145
       7223.9398       4.3155673
       7224.9148       4.4400369
       7225.8897       4.3190238
       7226.8646       4.4141950
       7227.8396       4.2271865
       7228.8145       4.2608011
       7229.7894       4.2342220
       7230.7643       4.2183021
       7231.7393       4.3506270
       7232.7142       4.3807706
       7233.6891       4.2657647
       7234.6641       3.7195993
       7235.6390       4.6803672
       7236.6139       4.3360867
       7237.5888       4.3584557
       7238.5638       4.6330391
       7239.5387       4.5696387
       7240.5136       4.8582837
       7241.4886       4.1591851
       7242.4635       4.7253642
       7243.4384       4.6037140
       7244.4133       4.5964023
       7245.3883       4.6851096
       7246.3632       4.4849916
       7247.3381       4.0712708
       7248.3131       4.3324068
       7249.2880       4.1189565
       7250.2629       4.6081111
       7251.2378       4.5403897
       7252.2128       4.3921924
       7253.1877       4.4145621
       7254.1626       4.6678819
       7255.1376       4.7617626
       7256.1125       4.4865724
       7257.0874       4.1229006
       7258.0624       4.6703472
       7259.0373       4.6139211
       7260.0122       4.6719467
       7260.9871       4.2847162
       7261.9621       4.3751941
       7262.9370       4.4560446
       7263.9119       4.5154181
       7264.8869       4.4938167
       7265.8618       4.3441438
       7266.8367       4.3510258
       7267.8116       4.2291870
       7268.7866       4.3788873
       7269.7615       3.8579660
       7270.7364       4.1901538
       7271.7114       4.2345350
       7272.6863       4.2210093
       7273.6612       4.5706137
       7274.6361       4.5546309
       7275.6111       4.5763072
       7276.5860       4.4231707
       7277.5609       4.4089802
       7278.5359       4.4227293
       7279.5108       4.3203296
       7280.4857       4.4655615
       7281.4607       4.2549049
       7282.4356       3.9776605
       7283.4105       4.5389795
       7284.3854       4.6019058
       7285.3604       4.3004389
       7286.3353       4.2083932
       7287.3102       4.4994449
       7288.2852       4.7665866
       7289.2601       4.4691422
       7290.2350       4.7251773
       7291.2099       4.5728964
       7292.1849       4.5351579
       7293.1598       4.5970936
       7294.1347       4.4003354
       7295.1097       4.3021950
       7296.0846       4.4564023
       7297.0595       4.5807407
       7298.0344       4.7120949
       7299.0094       4.7054096
       7299.9843       4.4980517
       7300.9592       4.4879478
       7301.9342       4.7535450
       7302.9091       4.9930483
       7303.8840       4.5155711
       7304.8589       4.7480054
       7305.8339       4.4231446
       7306.8088       4.3838832
       7307.7837       4.6975141
       7308.7587       4.6738160
       7309.7336       4.5626627
       7310.7085       3.7890165
       7311.6835       2.5467571
       7312.6584       1.4158624
       7313.6333       2.5148885
       7314.6082       4.0774913
       7315.5832       4.1807535
       7316.5581       4.4665819
       7317.5330       4.4632159
       7318.5080       4.8560446
       7319.4829       4.6836472
       7320.4578       4.5951670
       7321.4327       4.7579582
       7322.4077       4.7287198
       7323.3826       4.6811176
       7324.3575       4.6633273
       7325.3325       4.6644058
       7326.3074       4.7520205
       7327.2823       4.7673835
       7328.2572       4.7661017
       7329.2322       4.5943370
       7330.2071       4.5822748
       7331.1820       4.6298558
       7332.1570       4.5591738
       7333.1319       4.6497369
       7334.1068       4.6127969
       7335.0817       4.5692801
       7336.0567       5.0445696
       7337.0316       4.8161292
       7338.0065       4.7278687
       7338.9815       4.6921060
       7339.9564       4.7088391
       7340.9313       4.3936609
       7341.9063       4.6029756
       7342.8812       5.0977805
       7343.8561       4.8560204
       7344.8310       4.7681633
       7345.8060       4.4859241
       7346.7809       4.5641900
       7347.7558       5.0370532
       7348.7308       4.7506971
       7349.7057       4.8898642
       7350.6806       4.7392186
       7351.6555       4.5105550
       7352.6305       4.6000774
       7353.6054       4.5516958
       7354.5803       4.5175361
       7355.5553       4.4360239
       7356.5302       4.6349039
       7357.5051       4.5748049
       7358.4800       4.6662806
       7359.4550       4.6538132
       7360.4299       4.7363237
       7361.4048       4.7566670
       7362.3798       4.9683282
       7363.3547       4.8513792
       7364.3296       4.6069260
       7365.3045       4.7344518
       7366.2795       4.7204601
       7367.2544       4.8636691
       7368.2293       4.6678745
       7369.2043       4.4959406
       7370.1792       4.3614964
       7371.1541       4.2213487
       7372.1291       4.4593186
       7373.1040       4.3695120
       7374.0789       4.7695533
       7375.0538       4.6753715
       7376.0288       4.6921584
       7377.0037       4.6698680
       7377.9786       5.4016503
       7378.9536       4.9827765
       7379.9285       4.9480195
       7380.9034       4.3464815
       7381.8783       4.4127308
       7382.8533       4.5968352
       7383.8282       4.6884059
       7384.8031       4.6806202
       7385.7781       4.7948707
       7386.7530       4.7644189
       7387.7279       4.7155010
       7388.7028       4.8427283
       7389.6778       4.6664774
       7390.6527       4.6735831
       7391.6276       4.6375521
       7392.6026       4.6348184
       7393.5775       4.5840775
       7394.5524       4.6438311
       7395.5273       4.6756804
       7396.5023       4.6398431
       7397.4772       4.6873225
       7398.4521       4.6561405
       7399.4271       4.8169699
       7400.4020       4.7789067
       7401.3769       4.7631799
       7402.3519       4.8524818
       7403.3268       4.7654527
       7404.3017       4.7440202
       7405.2766       4.7138306
       7406.2516       4.8237038
       7407.2265       4.7763182
       7408.2014       5.0380860
       7409.1764       5.0768844
       7410.1513       5.0214313
       7411.1262       4.8345561
       7412.1011       4.9952901
       7413.0761       5.0357469
       7414.0510       5.0929699
       7415.0259       5.0715928
       7416.0009       5.0344987
       7416.9758       5.4015235
       7417.9507       5.0368591
       7418.9256       4.9015155
       7419.9006       5.0975960
       7420.8755       4.9272628
       7421.8504       5.2053580
       7422.8254       4.9553418
       7423.8003       5.1217049
       7424.7752       5.1976663
       7425.7501       5.0356276
       7426.7251       5.1851376
       7427.7000       5.1401425
       7428.6749       5.0641058
       7429.6499       4.9842073
       7430.6248       4.9108536
       7431.5997       4.9395611
       7432.5747       4.8264360
       7433.5496       4.9874418
       7434.5245       5.0563419
       7435.4994       4.9925620
       7436.4744       5.0775036
       7437.4493       4.9033112
       7438.4242       4.9180328
       7439.3992       4.9816899
       7440.3741       4.9271382
       7441.3490       5.0337426
       7442.3239       5.0344938
       7443.2989       4.9796458
       7444.2738       4.9738307
       7445.2487       4.9779017
       7446.2237       4.9518563
       7447.1986       5.0013941
       7448.1735       4.9538513
       7449.1484       4.9306154
       7450.1234       4.9275651
       7451.0983       4.9890540
       7452.0732       5.1656310
       7453.0482       5.1786070
       7454.0231       5.4690284
       7454.9980       5.3294156
       7455.9730       5.3218497
       7456.9479       5.4318473
       7457.9228       5.0867112
       7458.8977       4.9474526
       7459.8727       5.2555364
       7460.8476       5.1217684
       7461.8225       5.0028572
       7462.7975       4.9121616
       7463.7724       4.8763774
       7464.7473       5.1328243
       7465.7222       5.0840015
       7466.6972       4.9561966
       7467.6721       5.1295774
       7468.6470       5.1423597
       7469.6220       5.1596427
       7470.5969       5.2154918
       7471.5718       5.2631447
       7472.5467       5.3499367
       7473.5217       5.2522659
       7474.4966       5.1531535
       7475.4715       5.0819672
       7476.4465       5.1247062
       7477.4214       4.9890620
       7478.3963       5.2233152
       7479.3712       5.2365773
       7480.3462       5.2264240
       7481.3211       5.2645167
       7482.2960       5.1777676
       7483.2710       5.2460132
       7484.2459       5.0311092
       7485.2208       5.1645156
       7486.1958       5.0170690
       7487.1707       4.9173639
       7488.1456       4.9144547
       7489.1205       4.9523874
       7490.0955       5.1528419
       7491.0704       5.1598652
       7492.0453       5.1279518
       7493.0203       5.1164429
       7493.9952       5.2285358
       7494.9701       5.2620407
       7495.9450       5.1065836
       7496.9200       5.2752053
       7497.8949       5.4062989
       7498.8698       5.6631063
       7499.8448       5.6352749
       7500.8197       5.5701854
       7501.7946       5.4943415
       7502.7695       5.5171033
       7503.7445       5.4593539
       7504.7194       5.3071713
       7505.6943       5.1144180
       7506.6693       5.1564299
       7507.6442       5.2056029
       7508.6191       5.1704283
       7509.5940       5.2710473
       7510.5690       5.4534518
       7511.5439       5.4290309
       7512.5188       5.4291570
       7513.4938       5.3130599
       7514.4687       5.5816840
       7515.4436       5.6150923
       7516.4186       5.4797713
       7517.3935       5.5059690
       7518.3684       5.3879470
       7519.3433       5.2036253
       7520.3183       5.1389084
       7521.2932       5.0961830
       7522.2681       5.1875154
       7523.2431       5.1484470
       7524.2180       5.2536756
       7525.1929       5.4696057
       7526.1678       5.5359183
       7527.1428       5.5279199
       7528.1177       5.5064725
       7529.0926       5.5020835
       7530.0676       5.4107430
       7531.0425       5.4166333
       7532.0174       5.5305819
       7532.9923       5.5394906
       7533.9673       5.4099491
       7534.9422       5.5469350
       7535.9171       5.6580258
       7536.8921       5.6438370
       7537.8670       5.6904270
       7538.8419       5.5441567
       7539.8168       5.4213521
       7540.7918       5.4013138
       7541.7667       5.5431153
       7542.7416       5.7222842
       7543.7166       5.7291072
       7544.6915       5.6366333
       7545.6664       5.6905247
       7546.6414       5.6483999
       7547.6163       5.6595688
       7548.5912       5.4931624
       7549.5661       5.5650676
       7550.5411       5.5650378
       7551.5160       5.4757804
       7552.4909       5.4108321
       7553.4659       5.5248028
       7554.4408       5.6020583
       7555.4157       5.4308899
       7556.3906       5.6049508
       7557.3656       5.5414971
       7558.3405       5.5768473
       7559.3154       5.8464730
       7560.2904       5.9074723
       7561.2653       5.7888045
       7562.2402       5.5204109
       7563.2151       5.6833371
       7564.1901       5.6319580
       7565.1650       5.7328084
       7566.1399       5.8248976
       7567.1149       5.7039920
       7568.0898       5.6669348
       7569.0647       5.8001938
       7570.0396       5.6584002
       7571.0146       5.4941971
       7571.9895       5.4772945
       7572.9644       5.5065598
       7573.9394       5.5322567
       7574.9143       5.5737066
       7575.8892       5.4456660
       7576.8642       5.3875472
       7577.8391       5.3615192
       7578.8140       5.4180116
       7579.7889       5.4704263
       7580.7639       5.4824708
       7581.7388       5.5483138
       7582.7137       5.3029158
       7583.6887       5.5626706
       7584.6636       5.6526854
       7585.6385       5.3979686
       7586.6134       5.4888106
       7587.5884       5.5659569
       7588.5633       5.5485804
       7589.5382       5.5551944
       7590.5132       5.6275787
       7591.4881       5.4321342
       7592.4630       5.4675544
       7593.4379       5.5594556
       7594.4129       5.5178286
       7595.3878       5.5157152
       7596.3627       5.6166399
       7597.3377       5.5903772
       7598.3126       5.5304526
       7599.2875       5.5479170
       7600.2624       5.4810435
       7601.2374       5.5030403
       7602.2123       5.5718790
       7603.1872       5.2975542
       7604.1622       5.3935202
       7605.1371       5.3313358
       7606.1120       5.2772050
       7607.0870       5.1881416
       7608.0619       5.3601924
       7609.0368       5.3215305
       7610.0117       5.4435705
       7610.9867       5.4089460
       7611.9616       5.4713937
       7612.9365       5.3701531
       7613.9115       5.3131911
       7614.8864       5.5104104
       7615.8613       5.4576940
       7616.8362       5.3105812
       7617.8112       5.5484650
       7618.7861       5.3487468
       7619.7610       5.3074888
       7620.7360       5.2649256
       7621.7109       5.3099353
       7622.6858       5.2294890
       7623.6607       5.1839182
       7624.6357       4.9998097
       7625.6106       5.2001035
       7626.5855       5.2956387
       7627.5605       5.6027502
       7628.5354       5.1123190
       7629.5103       4.6664782
       7630.4853       4.3672525
       7631.4602       5.4546526
       7632.4351       5.9357974
       7633.4100       6.1794364
       7634.3850       5.3297837
       7635.3599       4.8944163
       7636.3348       4.8620454
       7637.3098       4.5399521
       7638.2847       4.3846383
       7639.2596       4.7083143
       7640.2345       5.3947476
       7641.2095       4.6721360
       7642.1844       4.5011909
       7643.1593       4.1849840
       7644.1343       4.2452999
       7645.1092       4.2823239
       7646.0841       3.9684811
       7647.0590       5.0128470
       7648.0340       4.8964343
       7649.0089       4.5499406
       7649.9838       4.2508068
       7650.9588       3.9603169
       7651.9337       4.2542311
       7652.9086       3.9964033
       7653.8835       4.1466780
       7654.8585       3.9725529
       7655.8334       3.8542166
       7656.8083       3.9616545
       7657.7833       3.4795615
       7658.7582       3.6214235
       7659.7331       3.6042034
       7660.7081       3.5849320
       7661.6830       3.8618664
       7662.6579       4.1884900
       7663.6328       4.6239786
       7664.6078       4.8071399
       7665.5827       4.6620011
       7666.5576       4.3523883
       7667.5326       4.1226842
       7668.5075       3.9484530
       7669.4824       3.6304716
       7670.4573       3.5553616
       7671.4323       3.8750438
       7672.4072       3.9645932
       7673.3821       4.0632121
       7674.3571       4.3207085
       7675.3320       4.5543217
       7676.3069       4.6707965
       7677.2818       4.4823867
       7678.2568       4.6490513
       7679.2317       4.2690962
       7680.2066       4.0058816
       7681.1816       4.2004626
       7682.1565       5.3315015
       7683.1314       8.0360259
       7684.1063       5.8243500
       7685.0813       5.6898937
       7686.0562       5.6248498
       7687.0311       5.9638920
       7688.0061       5.2067874
       7688.9810       3.2855854
       7689.9559       4.8643004
       7690.9309       4.9049276
       7691.9058       4.7976724
       7692.8807       4.3322585
       7693.8556       4.6555965
       7694.8306       4.8658681
       7695.8055       4.7093510
       7696.7804       4.4593176
       7697.7554       4.6747612
       7698.7303       4.9480398
       7699.7052       4.9745505
       7700.6801       5.0855675
       7701.6551       5.1711548
       7702.6300       4.9191389
       7703.6049       4.9714295
       7704.5799       5.0996562
       7705.5548       4.7492960
       7706.5297       4.9392508
       7707.5046       4.8830816
       7708.4796       4.9749120
       7709.4545       4.8929994
       7710.4294       4.8865041
       7711.4044       5.1095545
       7712.3793       5.0068291
       7713.3542       4.9258500
       7714.3291       4.9903836
       7715.3041       5.0240154
       7716.2790       5.0206510
       7717.2539       5.0014600
       7718.2289       5.2823151
       7719.2038       5.2757596
       7720.1787       4.6302357
       7721.1537       4.8562543
       7722.1286       4.9162571
       7723.1035       5.4149053
       7724.0784       5.1282155
       7725.0534       5.1360059
       7726.0283       5.0840412
       7727.0032       4.3789439
       7727.9782       3.9910769
       7728.9531       3.9393583
       7729.9280       4.0863177
       7730.9029       4.3245180
       7731.8779       4.6398282
       7732.8528       4.7821419
       7733.8277       4.8897589
       7734.8027       6.1377132
       7735.7776       4.7987871
       7736.7525       4.3662083
       7737.7274       3.9050502
       7738.7024       3.7533029
       7739.6773       4.4324843
       7740.6522       3.3357184
       7741.6272       5.2683870
       7742.6021       5.3174442
       7743.5770       5.1920293
       7744.5519       5.0486766
       7745.5269       5.0865196
       7746.5018       5.2002715
       7747.4767       5.1331333
       7748.4517       5.0512311
       7749.4266       4.9598152
       7750.4015       5.2792167
       7751.3765       4.3331427
       7752.3514       3.9853122
       7753.3263       4.3929240
       7754.3012       4.5743790
       7755.2762       3.9277525
       7756.2511       3.6566114
       7757.2260       5.1742037
       7758.2010       5.0988347
       7759.1759       4.9886997
       7760.1508       4.9973661
       7761.1257       4.8627185
       7762.1007       4.6608351
       7763.0756       4.8162472
       7764.0505       4.7864095
       7765.0255       6.0461162
       7766.0004       5.0101324
       7766.9753       4.7363813
       7767.9502       4.1337022
       7768.9252       4.7453286
       7769.9001       5.0949030
       7770.8750       3.9166602
       7771.8500       5.5954670
       7772.8249       5.3492138
       7773.7998       4.8012952
       7774.7747       4.8433916
       7775.7497       5.4043164
       7776.7246       5.5640359
       7777.6995       5.5342390
       7778.6745       5.7255409
       7779.6494       5.5655420
       7780.6243       5.3263722
       7781.5993       5.0731873
       7782.5742       4.8827243
       7783.5491       4.7312435
       7784.5240       4.5357295
       7785.4990       4.6279730
       7786.4739       5.5126926
       7787.4488       5.4715816
       7788.4238       5.6092927
       7789.3987       6.1235897
       7790.3736       5.9449216
       7791.3485       6.3034317
       7792.3235       5.9654126
       7793.2984       6.3745519
       7794.2733       6.1273452
       7795.2483       6.0185507
       7796.2232       5.7734607
       7797.1981       5.6795387
       7798.1730       5.4346058
       7799.1480       5.5629784
       7800.1229       5.7324258
       7801.0978       4.5798986
       7802.0728       4.2980802
       7803.0477       3.5448615
       7804.0226       3.4820390
       7804.9976       3.5802759
       7805.9725       3.6682580
       7806.9474       5.6667927
       7807.9223       5.2800064
       7808.8973       5.2331375
       7809.8722       5.1467251
       7810.8471       5.0587977
       7811.8221       5.2249603
       7812.7970       5.5521692
       7813.7719       5.5734654
       7814.7468       5.6266906
       7815.7218       5.2873908
       7816.6967       3.1366138
       7817.6716      0.71287657
       7818.6466       1.8472341
       7819.6215       2.5326726
       7820.5964       3.5262370
       7821.5713       4.9596989
       7822.5463       4.9289595
       7823.5212       4.9929903
       7824.4961       5.1491490
       7825.4711       5.3246392
       7826.4460       6.3920870
       7827.4209       6.6076117
       7828.3958       5.9436013
       7829.3708       5.5246756
       7830.3457       5.3335074
       7831.3206       5.2390643
       7832.2956       4.8396896
       7833.2705       4.7807589
       7834.2454       5.4213577
       7835.2204       5.4641422
       7836.1953       5.5040482
       7837.1702       5.3316853
       7838.1451       5.6474833
       7839.1201       6.0702157
       7840.0950       4.8123135
       7841.0699       4.6317253
       7842.0449       4.9620325
       7843.0198       5.0324774
       7843.9947       4.6742623
       7844.9696       5.6396400
       7845.9446       6.8912330
       7846.9195       6.3677244
       7847.8944       6.0011104
       7848.8694       6.0278310
       7849.8443       5.9907685
       7850.8192       5.6463935
       7851.7941       5.5116554
       7852.7691       5.2750054
       7853.7440       5.3493683
       7854.7189       5.3499554
       7855.6939       5.5373932
       7856.6688       5.5911200
       7857.6437       5.4561782
       7858.6186       5.4949059
       7859.5936       5.2177409
       7860.5685       5.1268505
       7861.5434       5.1167018
       7862.5184       5.1554490
       7863.4933       5.2741132
       7864.4682       5.5226139
       7865.4432       5.6628369
       7866.4181       5.4785712
       7867.3930       5.5909513
       7868.3679       5.7941323
       7869.3429       5.7205153
       7870.3178       5.4811238
       7871.2927       5.7487500
       7872.2677       5.8736831
       7873.2426       5.4025935
       7874.2175       5.2953129
       7875.1924       5.5141504
       7876.1674       5.8984479
       7877.1423       5.7375978
       7878.1172       5.8679030
       7879.0922       6.0409204
       7880.0671       5.9208861
       7881.0420       5.6825107
       7882.0169       5.7672985
       7882.9919       5.8978182
       7883.9668       5.5170369
       7884.9417       5.8779494
       7885.9167       5.7409055
       7886.8916       5.3938389
       7887.8665       5.4191129
       7888.8414       5.3056943
       7889.8164       5.9085113
       7890.7913       5.5636220
       7891.7662       5.6284285
       7892.7412       6.0681476
       7893.7161       5.7963137
       7894.6910       5.8649948
       7895.6660       5.7290888
       7896.6409       5.6067494
       7897.6158       5.1261621
       7898.5907       5.2377024
       7899.5657       5.3338282
       7900.5406       5.3660898
       7901.5155       5.4689267
       7902.4905       5.6449136
       7903.4654       5.4079748
       7904.4403       5.3364959
       7905.4152       5.3983347
       7906.3902       5.3982164
       7907.3651       5.5096354
       7908.3400       5.5625066
       7909.3150       5.6404662
       7910.2899       5.0373318
       7911.2648       4.5141419
       7912.2397       4.7632961
       7913.2147       5.2471906
       7914.1896       5.2587713
       7915.1645       5.3021421
       7916.1395       5.3303878
       7917.1144       5.0477086
       7918.0893       5.1579282
       7919.0642       5.1226630
       7920.0392       5.2600917
       7921.0141       5.4945791
       7921.9890       4.8679231
       7922.9640       4.6052333
       7923.9389       4.6484542
       7924.9138       5.6990708
       7925.8888       5.6202872
       7926.8637       5.3816515
       7927.8386       5.6337947
       7928.8135       5.9521669
       7929.7885       5.8331113
       7930.7634       5.9201238
       7931.7383       5.8400601
       7932.7133       5.7016951
       7933.6882       5.3579181
       7934.6631       5.8248787
       7935.6380       5.7554718
       7936.6130       5.5592339
       7937.5879       6.3361028
       7938.5628       6.2001281
       7939.5378       6.5293419
       7940.5127       6.2806541
       7941.4876       6.3003490
       7942.4625       5.9433911
       7943.4375       6.1077846
       7944.4124       6.2008034
       7945.3873       6.3510336
       7946.3623       6.6631564
       7947.3372       6.1498189
       7948.3121       5.9356449
       7949.2870       6.0121774
       7950.2620       6.2497741
       7951.2369       5.8527365
       7952.2118       5.9846071
       7953.1868       6.7196140
       7954.1617       6.2609888
       7955.1366       6.1849665
       7956.1116       6.4349359
       7957.0865       6.6432416
       7958.0614       6.1342138
       7959.0363       6.2482646
       7960.0113       6.0551074
       7960.9862       6.1473139
       7961.9611       6.1766500
       7962.9361       6.7709718
       7963.9110       6.4808436
       7964.8859       5.6878268
       7965.8608       6.5731636
       7966.8358       6.6527493
       7967.8107       6.6173440
       7968.7856       5.7247792
       7969.7606       6.8267646
       7970.7355       6.6063277
       7971.7104       6.1233964
       7972.6853       6.0413003
       7973.6603       6.1756292
       7974.6352       6.2126678
       7975.6101       6.0818805
       7976.5851       5.9054427
       7977.5600       6.0024683
       7978.5349       6.0194856
       7979.5099       5.6123799
       7980.4848       5.3743119
       7981.4597       5.3750568
       7982.4346       6.0779018
       7983.4096       6.0459476
       7984.3845       6.1737007
       7985.3594       6.0590498
       7986.3344       5.8164477
       7987.3093       5.8447604
       7988.2842       5.8839625
       7989.2591       6.2137761
       7990.2341       6.1758682
       7991.2090       6.2517856
       7992.1839       6.0824268
       7993.1589       5.8675102
       7994.1338       5.9668194
       7995.1087       5.9312156
       7996.0836       5.9200032
       7997.0586       5.9323608
       7998.0335       5.9529966
       7999.0084       5.9731629
       7999.9834       5.9054314
       8000.9583       6.0113674
       8001.9332       5.9055018
       8002.9081       5.9064169
       8003.8831       6.1125166
       8004.8580       6.2131474
       8005.8329       6.0105381
       8006.8079       6.9934666
       8007.7828       7.8888645
       8008.7577       8.0291407
       8009.7327       7.3708250
       8010.7076       6.6709151
       8011.6825       6.3390056
       8012.6574       6.1727622
       8013.6324       6.2011682
       8014.6073       6.1193288
       8015.5822       5.9791488
       8016.5572       5.9243330
       8017.5321       5.9598368
       8018.5070       6.1519273
       8019.4819       6.0492390
       8020.4569       5.9553665
       8021.4318       5.0600719
       8022.4067       2.2731921
       8023.3817       4.1337816
       8024.3566       5.8072994
       8025.3315       6.7041069
       8026.3064       6.7298774
       8027.2814       5.4865472
       8028.2563       8.3559732
       8029.2312       6.4087295
       8030.2062       5.9681422
       8031.1811       6.6099574
       8032.1560       6.0702170
       8033.1309       6.2849630
       8034.1059       6.3695635
       8035.0808       6.8634458
       8036.0557       6.5383539
       8037.0307       6.2039988
       8038.0056       6.3240800
       8038.9805       6.2096567
       8039.9555       6.0166340
       8040.9304       6.2606030
       8041.9053       6.4474532
       8042.8802       6.0513332
       8043.8552       6.0256008
       8044.8301       6.3862216
       8045.8050       6.4637086
       8046.7800       6.1890768
       8047.7549       6.2878629
       8048.7298       6.0002463
       8049.7047       6.1896630
       8050.6797       6.3533199
       8051.6546       6.0275300
       8052.6295       5.8543623
       8053.6045       6.0902451
       8054.5794       5.8895745
       8055.5543       5.8407761
       8056.5292       6.1120801
       8057.5042       6.1047275
       8058.4791       5.9848216
       8059.4540       5.9314503
       8060.4290       6.0083859
       8061.4039       6.1233967
       8062.3788       6.1269607
       8063.3537       6.0864199
       8064.3287       6.0116827
       8065.3036       6.0744675
       8066.2785       6.0030818
       8067.2535       6.1125595
       8068.2284       6.8042214
       8069.2033       6.1511776
       8070.1783       5.8532177
       8071.1532       6.0211325
       8072.1281       6.3100229
       8073.1030       5.5497826
