# wavelength flux
       2552.6421      0.29956062
       2553.5287      0.13840135
       2554.4153      0.22161687
       2555.3019      0.24508133
       2556.1886      0.15024036
       2557.0752   -0.0011795330
       2557.9618      0.18466761
       2558.8484      0.17342577
       2559.7351      0.24446360
       2560.6217      0.23023743
       2561.5083      0.11682666
       2562.3949      0.31366904
       2563.2816      0.30844956
       2564.1682      0.34274974
       2565.0548      0.19019833
       2565.9415      0.20847961
       2566.8281      0.23644323
       2567.7147      0.22447618
       2568.6013      0.15758187
       2569.4880      0.19939275
       2570.3746      0.27492279
       2571.2612      0.11203056
       2572.1478     0.060942122
       2573.0345      0.17705587
       2573.9211      0.28786721
       2574.8077      0.20645388
       2575.6943      0.20003396
       2576.5810      0.27357891
       2577.4676      0.19055182
       2578.3542      0.18924711
       2579.2408      0.10451681
       2580.1275      0.30176635
       2581.0141      0.20639232
       2581.9007      0.32459118
       2582.7874      0.30423011
       2583.6740      0.34039078
       2584.5606      0.28606615
       2585.4472      0.31093680
       2586.3339      0.26884483
       2587.2205      0.24599151
       2588.1071      0.29741538
       2588.9937      0.17296748
       2589.8804      0.31770832
       2590.7670      0.25997254
       2591.6536      0.23726074
       2592.5402      0.20880840
       2593.4269     0.070397565
       2594.3135      0.21656886
       2595.2001      0.20091188
       2596.0867      0.30838745
       2596.9734      0.22125104
       2597.8600      0.25277045
       2598.7466      0.25547076
       2599.6333      0.34171923
       2600.5199      0.25073430
       2601.4065      0.43718064
       2602.2931      0.41130786
       2603.1798      0.29884617
       2604.0664      0.39866204
       2604.9530      0.31243613
       2605.8396      0.33700899
       2606.7263      0.23838533
       2607.6129      0.31324717
       2608.4995      0.32234424
       2609.3861      0.28034782
       2610.2728      0.20031626
       2611.1594      0.25396397
       2612.0460      0.23525724
       2612.9327      0.21459952
       2613.8193      0.12429461
       2614.7059      0.18772727
       2615.5925      0.19815977
       2616.4792      0.22140448
       2617.3658      0.29906242
       2618.2524      0.25185010
       2619.1390      0.24721462
       2620.0257      0.24327067
       2620.9123      0.25896853
       2621.7989      0.31367570
       2622.6855      0.26389237
       2623.5722      0.25813430
       2624.4588      0.19803330
       2625.3454      0.18182174
       2626.2320      0.34929669
       2627.1187      0.31903138
       2628.0053      0.30647748
       2628.8919      0.30963899
       2629.7786      0.24737575
       2630.6652      0.34349371
       2631.5518      0.32333382
       2632.4384      0.32845966
       2633.3251      0.39445706
       2634.2117      0.25284977
       2635.0983      0.16250905
       2635.9849      0.33550737
       2636.8716      0.26501694
       2637.7582      0.35767499
       2638.6448      0.25793698
       2639.5314      0.20931136
       2640.4181      0.30738492
       2641.3047      0.34304657
       2642.1913      0.32639606
       2643.0780      0.31703583
       2643.9646      0.30041075
       2644.8512      0.25739461
       2645.7378      0.31704805
       2646.6245      0.30066503
       2647.5111      0.16025040
       2648.3977      0.24292259
       2649.2843      0.31011303
       2650.1710      0.37766793
       2651.0576      0.32423366
       2651.9442      0.28756933
       2652.8308      0.22974119
       2653.7175      0.36702466
       2654.6041      0.38785477
       2655.4907      0.31533411
       2656.3773      0.29247192
       2657.2640      0.26281020
       2658.1506      0.32661598
       2659.0372      0.35850093
       2659.9239      0.34240271
       2660.8105      0.38935008
       2661.6971      0.28151226
       2662.5837      0.45646481
       2663.4704      0.42820847
       2664.3570      0.31061099
       2665.2436      0.29129850
       2666.1302      0.38642565
       2667.0169      0.26230127
       2667.9035      0.32981084
       2668.7901      0.38932830
       2669.6767      0.46171841
       2670.5634      0.29134112
       2671.4500      0.37620708
       2672.3366      0.38714453
       2673.2232      0.27958417
       2674.1099      0.37252420
       2674.9965      0.28419479
       2675.8831      0.31257223
       2676.7698      0.31571589
       2677.6564      0.35919770
       2678.5430      0.35570618
       2679.4296      0.38515954
       2680.3163      0.31271669
       2681.2029      0.32049117
       2682.0895      0.40205085
       2682.9761      0.32719661
       2683.8628      0.37031850
       2684.7494      0.29852106
       2685.6360      0.22325080
       2686.5226      0.33519046
       2687.4093      0.34429095
       2688.2959      0.32719280
       2689.1825      0.25566783
       2690.0692      0.29884334
       2690.9558      0.34640655
       2691.8424      0.28277298
       2692.7290      0.24183363
       2693.6157      0.29291659
       2694.5023      0.32984388
       2695.3889      0.27691457
       2696.2755      0.33062495
       2697.1622      0.44163402
       2698.0488      0.30782999
       2698.9354      0.41646751
       2699.8220      0.32426965
       2700.7087      0.27666420
       2701.5953      0.39096180
       2702.4819      0.32381450
       2703.3685      0.28539051
       2704.2552      0.37234641
       2705.1418      0.38749909
       2706.0284      0.36961136
       2706.9151      0.38000066
       2707.8017      0.30712294
       2708.6883      0.35946190
       2709.5749      0.31439736
       2710.4616      0.38456660
       2711.3482      0.22238354
       2712.2348      0.34560699
       2713.1214      0.40273951
       2714.0081      0.35308022
       2714.8947      0.39393861
       2715.7813      0.39516990
       2716.6679      0.37944800
       2717.5546      0.34046547
       2718.4412      0.35034980
       2719.3278      0.35915281
       2720.2145      0.31145189
       2721.1011      0.37250166
       2721.9877      0.31519684
       2722.8743      0.23106090
       2723.7610      0.27805706
       2724.6476      0.31182870
       2725.5342      0.33842439
       2726.4208      0.36268253
       2727.3075      0.33844806
       2728.1941      0.30316564
       2729.0807      0.35514702
       2729.9673      0.29106331
       2730.8540      0.35183469
       2731.7406      0.37621463
       2732.6272      0.26877906
       2733.5138      0.25063044
       2734.4005      0.35292404
       2735.2871      0.35741148
       2736.1737      0.33748918
       2737.0604      0.31783917
       2737.9470      0.34510986
       2738.8336      0.31534632
       2739.7202      0.33369227
       2740.6069      0.26587636
       2741.4935      0.26177173
       2742.3801      0.27102622
       2743.2667      0.29474258
       2744.1534      0.27718747
       2745.0400      0.24929871
       2745.9266      0.32032884
       2746.8132      0.34696329
       2747.6999      0.27014874
       2748.5865      0.38435733
       2749.4731      0.43429204
       2750.3597      0.34825394
       2751.2464      0.43709865
       2752.1330      0.23589057
       2753.0196      0.41730269
       2753.9063      0.36769932
       2754.7929      0.36515647
       2755.6795      0.28172859
       2756.5661      0.39071339
       2757.4528      0.37677046
       2758.3394      0.37975319
       2759.2260      0.32901714
       2760.1126      0.30382334
       2760.9993      0.33472550
       2761.8859      0.31904654
       2762.7725      0.38110147
       2763.6591      0.27951444
       2764.5458      0.31005201
       2765.4324      0.33463452
       2766.3190      0.29192625
       2767.2057      0.33842082
       2768.0923      0.23297240
       2768.9789      0.30255215
       2769.8655      0.29613668
       2770.7522      0.32935967
       2771.6388      0.22347325
       2772.5254      0.25619743
       2773.4120      0.18837613
       2774.2987      0.40973089
       2775.1853      0.34239004
       2776.0719      0.31764879
       2776.9585      0.33911455
       2777.8452      0.39949050
       2778.7318      0.29013720
       2779.6184      0.23308174
       2780.5050      0.28596791
       2781.3917      0.27984746
       2782.2783      0.19118744
       2783.1649      0.26079848
       2784.0516      0.14350002
       2784.9382      0.18821682
       2785.8248      0.11543740
       2786.7114      0.16689869
       2787.5981      0.22300465
       2788.4847      0.20827707
       2789.3713      0.19173443
       2790.2579      0.14072571
       2791.1446      0.14064798
       2792.0312      0.20476612
       2792.9178     0.097517214
       2793.8044      0.11994636
       2794.6911      0.16777975
       2795.5777      0.23704725
       2796.4643      0.29758076
       2797.3509      0.35944461
       2798.2376      0.29731520
       2799.1242      0.39366354
       2800.0108      0.39436391
       2800.8975      0.29348892
       2801.7841      0.26418565
       2802.6707      0.40660460
       2803.5573      0.40929933
       2804.4440      0.30379502
       2805.3306      0.34013126
       2806.2172      0.28527283
       2807.1038      0.33408783
       2807.9905      0.33993670
       2808.8771      0.30888441
       2809.7637      0.31873117
       2810.6503      0.33096697
       2811.5370      0.25453229
       2812.4236      0.43235805
       2813.3102      0.35806752
       2814.1969      0.35462440
       2815.0835      0.39031211
       2815.9701      0.29420695
       2816.8567      0.37938378
       2817.7434      0.34717161
       2818.6300      0.33031467
       2819.5166      0.37713786
       2820.4032      0.33989071
       2821.2899      0.28240331
       2822.1765      0.37110155
       2823.0631      0.33397145
       2823.9497      0.26157242
       2824.8364      0.39336325
       2825.7230      0.39734003
       2826.6096      0.32233268
       2827.4962      0.33361077
       2828.3829      0.42245400
       2829.2695      0.32075860
       2830.1561      0.32099092
       2831.0428      0.39953253
       2831.9294      0.32245299
       2832.8160      0.31777149
       2833.7026      0.43284268
       2834.5893      0.36282164
       2835.4759      0.37272375
       2836.3625      0.34257775
       2837.2491      0.38493375
       2838.1358      0.31691500
       2839.0224      0.36650874
       2839.9090      0.37959922
       2840.7956      0.38887236
       2841.6823      0.25588324
       2842.5689      0.34982193
       2843.4555      0.29996451
       2844.3422      0.30405466
       2845.2288      0.33777801
       2846.1154      0.29613159
       2847.0020      0.30458985
       2847.8887      0.38013374
       2848.7753      0.35351149
       2849.6619      0.30423255
       2850.5485      0.32312492
       2851.4352      0.28571321
       2852.3218      0.30708404
       2853.2084      0.34990593
       2854.0950      0.31306536
       2854.9817      0.33722379
       2855.8683      0.34040196
       2856.7549      0.32588104
       2857.6415      0.35303032
       2858.5282      0.32975945
       2859.4148      0.38619502
       2860.3014      0.41273661
       2861.1881      0.34772791
       2862.0747      0.33091946
       2862.9613      0.41144892
       2863.8479      0.36065728
       2864.7346      0.29966753
       2865.6212      0.33236754
       2866.5078      0.39554417
       2867.3944      0.27949841
       2868.2811      0.28926656
       2869.1677      0.29011193
       2870.0543      0.27092150
       2870.9409      0.29420351
       2871.8276      0.32456888
       2872.7142      0.38273345
       2873.6008      0.34622052
       2874.4874      0.28882505
       2875.3741      0.29259009
       2876.2607      0.39322900
       2877.1473      0.40963520
       2878.0340      0.32165682
       2878.9206      0.33054408
       2879.8072      0.31679446
       2880.6938      0.40455384
       2881.5805      0.34970252
       2882.4671      0.43776440
       2883.3537      0.33083687
       2884.2403      0.39545808
       2885.1270      0.33331487
       2886.0136      0.36237626
       2886.9002      0.34569572
       2887.7868      0.31597030
       2888.6735      0.32014701
       2889.5601      0.42572690
       2890.4467      0.36227461
       2891.3334      0.31555717
       2892.2200      0.29825685
       2893.1066      0.39617777
       2893.9932      0.39598548
       2894.8799      0.32786802
       2895.7665      0.39438805
       2896.6531      0.31799690
       2897.5397      0.36210467
       2898.4264      0.31910499
       2899.3130      0.38326863
       2900.1996      0.31789634
       2901.0862      0.32941641
       2901.9729      0.33282106
       2902.8595      0.35012449
       2903.7461      0.38047102
       2904.6327      0.40313074
       2905.5194      0.42348334
       2906.4060      0.44270818
       2907.2926      0.38692246
       2908.1793      0.45787934
       2909.0659      0.33471730
       2909.9525      0.44369385
       2910.8391      0.46687104
       2911.7258      0.49250302
       2912.6124      0.44921825
       2913.4990      0.38040331
       2914.3856      0.33026525
       2915.2723      0.38056637
       2916.1589      0.38116953
       2917.0455      0.35328392
       2917.9321      0.34354260
       2918.8188      0.41484168
       2919.7054      0.35020649
       2920.5920      0.37621152
       2921.4787      0.32158966
       2922.3653      0.33455637
       2923.2519      0.45537953
       2924.1385      0.43357822
       2925.0252      0.35412943
       2925.9118      0.37321938
       2926.7984      0.40746316
       2927.6850      0.30254642
       2928.5717      0.38605026
       2929.4583      0.41098110
       2930.3449      0.41658068
       2931.2315      0.39602060
       2932.1182      0.44439750
       2933.0048      0.39074870
       2933.8914      0.39511886
       2934.7780      0.45785138
       2935.6647      0.36448176
       2936.5513      0.34279483
       2937.4379      0.41564524
       2938.3246      0.42233043
       2939.2112      0.39912926
       2940.0978      0.39363107
       2940.9844      0.42871542
       2941.8711      0.41351832
       2942.7577      0.35543375
       2943.6443      0.46214953
       2944.5309      0.42518087
       2945.4176      0.44230492
       2946.3042      0.36249410
       2947.1908      0.37482109
       2948.0774      0.43068354
       2948.9641      0.35947344
       2949.8507      0.38669740
       2950.7373      0.42801809
       2951.6239      0.34759110
       2952.5106      0.46425977
       2953.3972      0.32561495
       2954.2838      0.43645608
       2955.1705      0.41420888
       2956.0571      0.46125230
       2956.9437      0.39411246
       2957.8303      0.33790694
       2958.7170      0.41387552
       2959.6036      0.43263546
       2960.4902      0.41855562
       2961.3768      0.37388441
       2962.2635      0.40149701
       2963.1501      0.37243800
       2964.0367      0.47409223
       2964.9233      0.42364404
       2965.8100      0.44149408
       2966.6966      0.35625975
       2967.5832      0.42867155
       2968.4699      0.41860699
       2969.3565      0.38590737
       2970.2431      0.34126317
       2971.1297      0.42093906
       2972.0164      0.36764550
       2972.9030      0.42632189
       2973.7896      0.40812207
       2974.6762      0.33901541
       2975.5629      0.36927882
       2976.4495      0.40151415
       2977.3361      0.41130904
       2978.2227      0.44938794
       2979.1094      0.33392375
       2979.9960      0.38486955
       2980.8826      0.37406905
       2981.7692      0.39722552
       2982.6559      0.39435596
       2983.5425      0.39131685
       2984.4291      0.38907922
       2985.3158      0.37668884
       2986.2024      0.39988433
       2987.0890      0.37285740
       2987.9756      0.38096748
       2988.8623      0.33712780
       2989.7489      0.30965499
       2990.6355      0.43585473
       2991.5221      0.37518009
       2992.4088      0.37610437
       2993.2954      0.32549584
       2994.1820      0.32492630
       2995.0686      0.36965464
       2995.9553      0.43169457
       2996.8419      0.43379317
       2997.7285      0.46855289
       2998.6152      0.30825006
       2999.5018      0.35425765
       3000.3884      0.38119852
       3001.2750      0.34987709
       3002.1617      0.41880315
       3003.0483      0.31763141
       3003.9349      0.36195519
       3004.8215      0.33778659
       3005.7082      0.44103202
       3006.5948      0.40966289
       3007.4814      0.39261266
       3008.3680      0.34703788
       3009.2547      0.45562841
       3010.1413      0.41332617
       3011.0279      0.48109966
       3011.9145      0.40937087
       3012.8012      0.27176887
       3013.6878      0.35680730
       3014.5744      0.39208856
       3015.4611      0.39613762
       3016.3477      0.37004745
       3017.2343      0.37698811
       3018.1209      0.36642502
       3019.0076      0.41332777
       3019.8942      0.39773492
       3020.7808      0.41690282
       3021.6674      0.43142689
       3022.5541      0.44620684
       3023.4407      0.42775070
       3024.3273      0.35575063
       3025.2139      0.37404205
       3026.1006      0.40624434
       3026.9872      0.37422917
       3027.8738      0.37505155
       3028.7604      0.40232292
       3029.6471      0.36993171
       3030.5337      0.44791558
       3031.4203      0.43028128
       3032.3070      0.41413751
       3033.1936      0.39284616
       3034.0802      0.39357912
       3034.9668      0.43158500
       3035.8535      0.50639099
       3036.7401      0.38993504
       3037.6267      0.40382790
       3038.5133      0.37678747
       3039.4000      0.46396796
       3040.2866      0.45369740
       3041.1732      0.51109743
       3042.0598      0.49195612
       3042.9465      0.42697588
       3043.8331      0.36927082
       3044.7197      0.36575603
       3045.6064      0.41216157
       3046.4930      0.43931768
       3047.3796      0.45029328
       3048.2662      0.32891928
       3049.1529      0.38960693
       3050.0395      0.45292790
       3050.9261      0.41516056
       3051.8127      0.48346569
       3052.6994      0.47864306
       3053.5860      0.37756925
       3054.4726      0.49662867
       3055.3592      0.45777131
       3056.2459      0.51526141
       3057.1325      0.44551423
       3058.0191      0.46129653
       3058.9057      0.39378459
       3059.7924      0.41179372
       3060.6790      0.46723130
       3061.5656      0.37266214
       3062.4523      0.37913173
       3063.3389      0.41433302
       3064.2255      0.44513359
       3065.1121      0.48489693
       3065.9988      0.41307227
       3066.8854      0.35630123
       3067.7720      0.47814373
       3068.6586      0.44730343
       3069.5453      0.38948466
       3070.4319      0.45478047
       3071.3185      0.37792795
       3072.2051      0.38866565
       3073.0918      0.43187142
       3073.9784      0.39598754
       3074.8650      0.43297561
       3075.7517      0.40003340
       3076.6383      0.51733241
       3077.5249      0.52473630
       3078.4115      0.48068666
       3079.2982      0.42168444
       3080.1848      0.45004754
       3081.0714      0.49869791
       3081.9580      0.43143945
       3082.8447      0.45754826
       3083.7313      0.40403770
       3084.6179      0.39535827
       3085.5045      0.40535527
       3086.3912      0.47437879
       3087.2778      0.39554280
       3088.1644      0.46462593
       3089.0510      0.40572391
       3089.9377      0.52758567
       3090.8243      0.41902869
       3091.7109      0.47679780
       3092.5976      0.39105771
       3093.4842      0.40394322
       3094.3708      0.39966401
       3095.2574      0.50717018
       3096.1441      0.42769637
       3097.0307      0.46765533
       3097.9173      0.45278373
       3098.8039      0.42850849
       3099.6906      0.42458401
       3100.5772      0.42844541
       3101.4638      0.41463747
       3102.3504      0.41472407
       3103.2371      0.47097199
       3104.1237      0.40316878
       3105.0103      0.41191363
       3105.8969      0.42969007
       3106.7836      0.46419062
       3107.6702      0.43305192
       3108.5568      0.40505781
       3109.4435      0.47564015
       3110.3301      0.46364344
       3111.2167      0.41169310
       3112.1033      0.48342428
       3112.9900      0.46348543
       3113.8766      0.47650235
       3114.7632      0.45902346
       3115.6498      0.41627332
       3116.5365      0.39513764
       3117.4231      0.48526304
       3118.3097      0.51304474
       3119.1963      0.41868265
       3120.0830      0.43292935
       3120.9696      0.42267582
       3121.8562      0.42346712
       3122.7429      0.39321558
       3123.6295      0.47799936
       3124.5161      0.45874955
       3125.4027      0.41496070
       3126.2894      0.36394184
       3127.1760      0.43994457
       3128.0626      0.35287578
       3128.9492      0.44794352
       3129.8359      0.41823567
       3130.7225      0.43131888
       3131.6091      0.47083982
       3132.4957      0.45582047
       3133.3824      0.37318677
       3134.2690      0.49751213
       3135.1556      0.48521110
       3136.0422      0.44637339
       3136.9289      0.46621736
       3137.8155      0.44830321
       3138.7021      0.47595244
       3139.5888      0.40265696
       3140.4754      0.44434675
       3141.3620      0.48381580
       3142.2486      0.46292473
       3143.1353      0.45611597
       3144.0219      0.51947295
       3144.9085      0.54819306
       3145.7951      0.47299549
       3146.6818      0.52020884
       3147.5684      0.53110143
       3148.4550      0.41236217
       3149.3416      0.49099954
       3150.2283      0.40107347
       3151.1149      0.49201026
       3152.0015      0.50896975
       3152.8881      0.52625759
       3153.7748      0.46075407
       3154.6614      0.42891132
       3155.5480      0.51885489
       3156.4347      0.45643479
       3157.3213      0.38287760
       3158.2079      0.44831664
       3159.0945      0.52901417
       3159.9812      0.43040865
       3160.8678      0.51015701
       3161.7544      0.46675228
       3162.6410      0.47703352
       3163.5277      0.50150391
       3164.4143      0.45846640
       3165.3009      0.43055894
       3166.1875      0.42409628
       3167.0742      0.45735314
       3167.9608      0.40484906
       3168.8474      0.48622473
       3169.7341      0.48172769
       3170.6207      0.49536145
       3171.5073      0.44764919
       3172.3939      0.46336798
       3173.2806      0.46810865
       3174.1672      0.50465472
       3175.0538      0.50572987
       3175.9404      0.50687261
       3176.8271      0.54804439
       3177.7137      0.49365739
       3178.6003      0.51522995
       3179.4869      0.42615946
       3180.3736      0.40249336
       3181.2602      0.45779405
       3182.1468      0.50531437
       3183.0334      0.41331045
       3183.9201      0.47684377
       3184.8067      0.48154769
       3185.6933      0.43223914
       3186.5800      0.37555296
       3187.4666      0.49221367
       3188.3532      0.49452604
       3189.2398      0.53686872
       3190.1265      0.51298068
       3191.0131      0.52851684
       3191.8997      0.53648720
       3192.7863      0.43632653
       3193.6730      0.54872686
       3194.5596      0.48341324
       3195.4462      0.50095656
       3196.3328      0.47689049
       3197.2195      0.49745831
       3198.1061      0.47740017
       3198.9927      0.41647501
       3199.8794      0.47420232
       3200.7660      0.51814325
       3201.6526      0.49751090
       3202.5392      0.50893732
       3203.4259      0.50473199
       3204.3125      0.56412222
       3205.1991      0.52571020
       3206.0857      0.46664519
       3206.9724      0.48508259
       3207.8590      0.51928029
       3208.7456      0.56857409
       3209.6322      0.42713995
       3210.5189      0.49924171
       3211.4055      0.53822702
       3212.2921      0.48394214
       3213.1787      0.48257015
       3214.0654      0.46194103
       3214.9520      0.44162435
       3215.8386      0.48615306
       3216.7253      0.50981194
       3217.6119      0.50933455
       3218.4985      0.43055069
       3219.3851      0.41408116
       3220.2718      0.42733094
       3221.1584      0.42760636
       3222.0450      0.52528065
       3222.9316      0.51629469
       3223.8183      0.45091542
       3224.7049      0.45609373
       3225.5915      0.48772086
       3226.4781      0.42023611
       3227.3648      0.49620078
       3228.2514      0.53118345
       3229.1380      0.48246264
       3230.0246      0.47496537
       3230.9113      0.48453678
       3231.7979      0.44669732
       3232.6845      0.41899567
       3233.5712      0.40826845
       3234.4578      0.49623277
       3235.3444      0.49190084
       3236.2310      0.48974524
       3237.1177      0.44038882
       3238.0043      0.42437629
       3238.8909      0.46077808
       3239.7775      0.46630073
       3240.6642      0.47572039
       3241.5508      0.48550662
       3242.4374      0.54193579
       3243.3240      0.44785386
       3244.2107      0.45241590
       3245.0973      0.39645441
       3245.9839      0.46485419
       3246.8706      0.46118588
       3247.7572      0.48851425
       3248.6438      0.49672637
       3249.5304      0.51916822
       3250.4171      0.55611809
       3251.3037      0.45909140
       3252.1903      0.48391786
       3253.0769      0.53705816
       3253.9636      0.49458129
       3254.8502      0.50483440
       3255.7368      0.48966544
       3256.6234      0.50339218
       3257.5101      0.56146050
       3258.3967      0.49782379
       3259.2833      0.48358993
       3260.1699      0.45627955
       3261.0566      0.43293327
       3261.9432      0.51125719
       3262.8298      0.53129222
       3263.7165      0.50935168
       3264.6031      0.46162987
       3265.4897      0.49857144
       3266.3763      0.47944039
       3267.2630      0.54155643
       3268.1496      0.46924837
       3269.0362      0.54045203
       3269.9228      0.49462516
       3270.8095      0.49605525
       3271.6961      0.51689864
       3272.5827      0.53647477
       3273.4693      0.53393360
       3274.3560      0.46742992
       3275.2426      0.49639615
       3276.1292      0.52548279
       3277.0159      0.49932134
       3277.9025      0.50184300
       3278.7891      0.44417656
       3279.6757      0.48994937
       3280.5624      0.42647920
       3281.4490      0.47376224
       3282.3356      0.45590968
       3283.2222      0.46336806
       3284.1089      0.43860649
       3284.9955      0.50665714
       3285.8821      0.48720359
       3286.7687      0.47332355
       3287.6554      0.47924446
       3288.5420      0.49963874
       3289.4286      0.48258453
       3290.3152      0.52706476
       3291.2019      0.52642206
       3292.0885      0.55878724
       3292.9751      0.48686835
       3293.8618      0.39999885
       3294.7484      0.57492636
       3295.6350      0.49558034
       3296.5216      0.57615833
       3297.4083      0.47058217
       3298.2949      0.53831230
       3299.1815      0.55509039
       3300.0681      0.59976306
       3300.9548      0.53474454
       3301.8414      0.53208760
       3302.7280      0.45173066
       3303.6146      0.51886479
       3304.5013      0.51421107
       3305.3879      0.54724842
       3306.2745      0.49215226
       3307.1611      0.56063958
       3308.0478      0.45552656
       3308.9344      0.44249105
       3309.8210      0.50077299
       3310.7077      0.51887893
       3311.5943      0.61591852
       3312.4809      0.58645163
       3313.3675      0.59246067
       3314.2542      0.49579703
       3315.1408      0.52853168
       3316.0274      0.56331958
       3316.9140      0.51535071
       3317.8007      0.49273082
       3318.6873      0.55394545
       3319.5739      0.48462521
       3320.4605      0.59923880
       3321.3472      0.58747944
       3322.2338      0.50815468
       3323.1204      0.58026434
       3324.0071      0.54635477
       3324.8937      0.49032217
       3325.7803      0.54682060
       3326.6669      0.53834160
       3327.5536      0.53717403
       3328.4402      0.52028264
       3329.3268      0.52887245
       3330.2134      0.59301808
       3331.1001      0.52041641
       3331.9867      0.55913515
       3332.8733      0.59272428
       3333.7599      0.63344202
       3334.6466      0.59815893
       3335.5332      0.55887113
       3336.4198      0.45314067
       3337.3064      0.27812438
       3338.1931      0.13315562
       3339.0797      0.42170013
       3339.9663      0.56248554
       3340.8530      0.58357804
       3341.7396      0.55661881
       3342.6262      0.54889893
       3343.5128      0.50786611
       3344.3995      0.50757321
       3345.2861      0.56305277
       3346.1727      0.59885524
       3347.0593      0.56019844
       3347.9460      0.52073872
       3348.8326      0.57476038
       3349.7192      0.56027451
       3350.6058      0.52163684
       3351.4925      0.63968329
       3352.3791      0.53971514
       3353.2657      0.54454910
       3354.1524      0.59543921
       3355.0390      0.66023753
       3355.9256      0.54760892
       3356.8122      0.55132288
       3357.6989      0.46531695
       3358.5855      0.65083186
       3359.4721      0.65758249
       3360.3587      0.56993770
       3361.2454      0.42755583
       3362.1320      0.51432659
       3363.0186      0.51348483
       3363.9052      0.52801807
       3364.7919      0.51929714
       3365.6785      0.51185755
       3366.5651      0.58035971
       3367.4517      0.55644214
       3368.3384      0.56204952
       3369.2250      0.54277950
       3370.1116      0.60605802
       3370.9983      0.58506858
       3371.8849      0.53136676
       3372.7715      0.50540178
       3373.6581      0.52886166
       3374.5448      0.58699858
       3375.4314      0.56240129
       3376.3180      0.53942417
       3377.2046      0.53973666
       3378.0913      0.53774465
       3378.9779      0.53845112
       3379.8645      0.57022024
       3380.7511      0.56902880
       3381.6378      0.55972204
       3382.5244      0.63256211
       3383.4110      0.51149578
       3384.2976      0.55779825
       3385.1843      0.49306997
       3386.0709      0.54948107
       3386.9575      0.52963140
       3387.8442      0.54270671
       3388.7308      0.57978273
       3389.6174      0.52653947
       3390.5040      0.52456961
       3391.3907      0.65501263
       3392.2773      0.60727511
       3393.1639      0.55338251
       3394.0505      0.56149819
       3394.9372      0.54503860
       3395.8238      0.53613535
       3396.7104      0.61919125
       3397.5970      0.59228228
       3398.4837      0.55603805
       3399.3703      0.46578340
       3400.2569      0.57178965
       3401.1436      0.56386561
       3402.0302      0.57150116
       3402.9168      0.62552963
       3403.8034      0.59679487
       3404.6901      0.57722547
       3405.5767      0.52341155
       3406.4633      0.57606874
       3407.3499      0.67717102
       3408.2366      0.63719766
       3409.1232      0.64268835
       3410.0098      0.60723428
       3410.8964      0.62858762
       3411.7831      0.58554560
       3412.6697      0.61322204
       3413.5563      0.58277499
       3414.4429      0.57043656
       3415.3296      0.49217310
       3416.2162      0.54469849
       3417.1028      0.65142240
       3417.9895      0.62710396
       3418.8761      0.55828097
       3419.7627      0.60132490
       3420.6493      0.61099107
       3421.5360      0.56055332
       3422.4226      0.63057166
       3423.3092      0.64847774
       3424.1958      0.58643665
       3425.0825      0.56616397
       3425.9691      0.55917284
       3426.8557      0.65446009
       3427.7423      0.65426688
       3428.6290      0.56039912
       3429.5156      0.66149950
       3430.4022      0.68704088
       3431.2889      0.67712623
       3432.1755      0.64653604
       3433.0621      0.59694543
       3433.9487      0.56958331
       3434.8354      0.57040856
       3435.7220      0.64186567
       3436.6086      0.65323414
       3437.4952      0.53935678
       3438.3819      0.62374723
       3439.2685      0.48134965
       3440.1551      0.64215503
       3441.0417      0.52866076
       3441.9284      0.63887203
       3442.8150      0.69532814
       3443.7016      0.54684729
       3444.5882      0.40225487
       3445.4749      0.63894865
       3446.3615      0.48934355
       3447.2481      0.50116951
       3448.1348      0.57324717
       3449.0214      0.54043691
       3449.9080      0.62329646
       3450.7946      0.64325926
       3451.6813      0.57891296
       3452.5679      0.65294094
       3453.4545      0.67014893
       3454.3411      0.61135773
       3455.2278      0.65518523
       3456.1144      0.67589410
       3457.0010      0.67910357
       3457.8876      0.52721632
       3458.7743      0.71654225
       3459.6609      0.62135075
       3460.5475      0.68123728
       3461.4341      0.69834235
       3462.3208      0.63842490
       3463.2074      0.52548635
       3464.0940      0.72815073
       3464.9807      0.56872394
       3465.8673      0.74247009
       3466.7539      0.53421446
       3467.6405      0.68775250
       3468.5272      0.58818775
       3469.4138      0.63178991
       3470.3004      0.67840032
       3471.1870      0.67598318
       3472.0737      0.61350813
       3472.9603      0.61835876
       3473.8469      0.56921487
       3474.7335      0.56849231
       3475.6202      0.65558167
       3476.5068      0.59134857
       3477.3934      0.60625410
       3478.2801      0.62296100
       3479.1667      0.56470214
       3480.0533      0.61542882
       3480.9399      0.54860977
       3481.8266      0.63112621
       3482.7132      0.57714526
       3483.5998      0.66579216
       3484.4864      0.58243323
       3485.3731      0.67543737
       3486.2597      0.56875170
       3487.1463      0.63997696
       3488.0329      0.72866349
       3488.9196      0.66884333
       3489.8062      0.67955392
       3490.6928      0.62022849
       3491.5794      0.61820622
       3492.4661      0.64726976
       3493.3527      0.62221381
       3494.2393      0.57426725
       3495.1260      0.61848063
       3496.0126      0.63988370
       3496.8992      0.58219400
       3497.7858      0.71862111
       3498.6725      0.68782354
       3499.5591      0.66144422
       3500.4457      0.59648487
       3501.3323      0.62452907
       3502.2190      0.57383660
       3503.1056      0.68276298
       3503.9922      0.69824391
       3504.8788      0.63310587
       3505.7655      0.59408119
       3506.6521      0.70699118
       3507.5387      0.57570402
       3508.4253      0.61697202
       3509.3120      0.57462095
       3510.1986      0.62253541
       3511.0852      0.64351232
       3511.9719      0.72233771
       3512.8585      0.62203667
       3513.7451      0.65163345
       3514.6317      0.74656401
       3515.5184      0.63143343
       3516.4050      0.65051042
       3517.2916      0.63049270
       3518.1782      0.68110625
       3519.0649      0.58575398
       3519.9515      0.71203813
       3520.8381      0.56390275
       3521.7247      0.63633771
       3522.6114      0.57560311
       3523.4980      0.63238247
       3524.3846      0.73938598
       3525.2713      0.60777075
       3526.1579      0.70432254
       3527.0445      0.64082803
       3527.9311      0.70809655
       3528.8178      0.68030415
       3529.7044      0.71614835
       3530.5910      0.61519123
       3531.4776      0.64248479
       3532.3643      0.78144540
       3533.2509      0.65281748
       3534.1375      0.64127757
       3535.0241      0.66803933
       3535.9108      0.67034219
       3536.7974      0.71085479
       3537.6840      0.58664141
       3538.5706      0.72092504
       3539.4573      0.54772408
       3540.3439      0.67324066
       3541.2305      0.63550433
       3542.1172      0.64078478
       3543.0038      0.69189209
       3543.8904      0.69119702
       3544.7770      0.64286533
       3545.6637      0.64317578
       3546.5503      0.65966751
       3547.4369      0.69882320
       3548.3235      0.74405622
       3549.2102      0.73257328
       3550.0968      0.75379850
       3550.9834      0.77172054
       3551.8700      0.70649322
       3552.7567      0.74723764
       3553.6433      0.75123272
       3554.5299      0.71943014
       3555.4166      0.60050501
       3556.3032      0.62355618
       3557.1898      0.62564028
       3558.0764      0.66667909
       3558.9631      0.73159133
       3559.8497      0.68496476
       3560.7363      0.70828537
       3561.6229      0.59854858
       3562.5096      0.66218234
       3563.3962      0.72464222
       3564.2828      0.66332803
       3565.1694      0.76195412
       3566.0561      0.60849989
       3566.9427      0.65872169
       3567.8293      0.54296033
       3568.7159      0.63256602
       3569.6026      0.68036308
       3570.4892      0.57487012
       3571.3758      0.68075289
       3572.2625      0.58143392
       3573.1491      0.59022299
       3574.0357      0.58562169
       3574.9223      0.58141501
       3575.8090      0.67588787
       3576.6956      0.62003805
       3577.5822      0.61946988
       3578.4688      0.64668339
       3579.3555      0.59933906
       3580.2421      0.69486789
       3581.1287      0.57657593
       3582.0153      0.75978064
       3582.9020      0.62859863
       3583.7886      0.57323816
       3584.6752      0.76275858
       3585.5618      0.66368796
       3586.4485      0.64648781
       3587.3351      0.66304308
       3588.2217      0.57725140
       3589.1084      0.55551362
       3589.9950      0.63495612
       3590.8816      0.64584311
       3591.7682      0.66041923
       3592.6549      0.74697579
       3593.5415      0.61534085
       3594.4281      0.69403347
       3595.3147      0.69807757
       3596.2014      0.70764455
       3597.0880      0.70339478
       3597.9746      0.72652370
       3598.8612      0.64660057
       3599.7479      0.71092212
       3600.6345      0.75057317
       3601.5211      0.71842974
       3602.4078      0.66749993
       3603.2944      0.67237751
       3604.1810      0.55751899
       3605.0676      0.71975686
       3605.9543      0.70604944
       3606.8409      0.78187092
       3607.7275      0.75635523
       3608.6141      0.51866262
       3609.5008      0.74367338
       3610.3874      0.63833216
       3611.2740      0.79323265
       3612.1606      0.74285307
       3613.0473      0.65004890
       3613.9339      0.69117908
       3614.8205      0.62183972
       3615.7071      0.74127642
       3616.5938      0.60372518
       3617.4804      0.71912760
       3618.3670      0.70270257
       3619.2537      0.73655240
       3620.1403      0.74231024
       3621.0269      0.72879229
       3621.9135      0.58188363
       3622.8002      0.72916100
       3623.6868      0.69434211
       3624.5734      0.62455358
       3625.4600      0.79357934
       3626.3467      0.73324690
       3627.2333      0.82514273
       3628.1199      0.65938556
       3629.0065      0.59161090
       3629.8932      0.77105068
       3630.7798      0.63932207
       3631.6664      0.68818339
       3632.5531      0.63992647
       3633.4397      0.67601933
       3634.3263      0.78446130
       3635.2129      0.69716669
       3636.0996      0.58709008
       3636.9862      0.65287252
       3637.8728      0.70237090
       3638.7594      0.75945538
       3639.6461      0.63418276
       3640.5327      0.71365717
       3641.4193      0.74523149
       3642.3059      0.72271797
       3643.1926      0.77838923
       3644.0792      0.70024844
       3644.9658      0.72005382
       3645.8524      0.79157906
       3646.7391      0.60577597
       3647.6257      0.67736296
       3648.5123      0.66444786
       3649.3990      0.61953429
       3650.2856      0.78315994
       3651.1722      0.63062202
       3652.0588      0.75080688
       3652.9455      0.63990136
       3653.8321      0.67955009
       3654.7187      0.67244228
       3655.6053      0.72070418
       3656.4920      0.67154827
       3657.3786      0.76419484
       3658.2652      0.78410042
       3659.1518      0.70881862
       3660.0385      0.64068972
       3660.9251      0.81796612
       3661.8117      0.70628174
       3662.6983      0.73656691
       3663.5850      0.69843874
       3664.4716      0.64360984
       3665.3582      0.64492216
       3666.2449      0.65729472
       3667.1315      0.67098624
       3668.0181      0.68620661
       3668.9047      0.78898302
       3669.7914      0.79013597
       3670.6780      0.54140196
       3671.5646      0.75336354
       3672.4512      0.68672290
       3673.3379      0.56308489
       3674.2245      0.81022311
       3675.1111      0.83529038
       3675.9977      0.79941418
       3676.8844      0.72960054
       3677.7710      0.58147328
       3678.6576      0.67974864
       3679.5443      0.62670451
       3680.4309      0.62532086
       3681.3175      0.80161358
       3682.2041      0.67109184
       3683.0908      0.72423162
       3683.9774      0.57855711
       3684.8640      0.64612519
       3685.7506      0.64599092
       3686.6373      0.62594009
       3687.5239      0.61246929
       3688.4105      0.69503566
       3689.2971      0.70575093
       3690.1838      0.81293456
       3691.0704      0.68872813
       3691.9570      0.69303237
       3692.8436      0.75810443
       3693.7303      0.67874259
       3694.6169      0.59956482
       3695.5035      0.73790905
       3696.3902      0.68028377
       3697.2768      0.82415546
       3698.1634      0.76309007
       3699.0500      0.73042582
       3699.9367      0.78348810
       3700.8233      0.66980177
       3701.7099      0.73544943
       3702.5965      0.62032350
       3703.4832      0.63396725
       3704.3698      0.71178540
       3705.2564      0.59659724
       3706.1430      0.67976076
       3707.0297      0.68114566
       3707.9163      0.60419919
       3708.8029      0.75650948
       3709.6896      0.74925572
       3710.5762      0.65737534
       3711.4628      0.70558835
       3712.3494      0.64489492
       3713.2361      0.66720162
       3714.1227      0.75028560
       3715.0093      0.70027627
       3715.8959      0.87399476
       3716.7826      0.77503526
       3717.6692      0.68122635
       3718.5558      0.74482682
       3719.4424      0.67701293
       3720.3291      0.82617692
       3721.2157      0.95544131
       3722.1023       1.2032083
       3722.9889       1.6842443
       3723.8756       2.1233949
       3724.7622       2.8289840
       3725.6488       3.6552796
       3726.5355       3.9852759
       3727.4221       3.9261354
       3728.3087       3.8041932
       3729.1953       3.2958130
       3730.0820       2.7379263
       3730.9686       1.9818425
       3731.8552       1.3593442
       3732.7418      0.97194911
       3733.6285      0.82640761
       3734.5151      0.72254505
       3735.4017      0.76677085
       3736.2883      0.69082926
       3737.1750      0.90473400
       3738.0616      0.90394360
       3738.9482      0.89227245
       3739.8348      0.88286475
       3740.7215      0.91645278
       3741.6081      0.90091649
       3742.4947      0.83072554
       3743.3814      0.87355284
       3744.2680      0.75587258
       3745.1546      0.71309559
       3746.0412      0.79628070
       3746.9279      0.76200759
       3747.8145      0.72704787
       3748.7011      0.62944400
       3749.5877      0.65923498
       3750.4744      0.71968624
       3751.3610      0.76728111
       3752.2476      0.74510952
       3753.1342      0.88840443
       3754.0209      0.84692932
       3754.9075      0.81859502
       3755.7941      0.87075304
       3756.6808      0.90324400
       3757.5674      0.82018813
       3758.4540      0.94743301
       3759.3406      0.87703442
       3760.2273      0.92364927
       3761.1139      0.80816677
       3762.0005      0.85772638
       3762.8871      0.81516425
       3763.7738      0.84473658
       3764.6604      0.78916519
       3765.5470      0.79137074
       3766.4336      0.80820097
       3767.3203      0.80268412
       3768.2069      0.86249554
       3769.0935      0.72673515
       3769.9801      0.82886511
       3770.8668      0.76482590
       3771.7534      0.76270687
       3772.6400      0.76779404
       3773.5267      0.87156903
       3774.4133      0.99490998
       3775.2999       1.0057996
       3776.1865       1.0286036
       3777.0732      0.99136748
       3777.9598       1.0314361
       3778.8464      0.95865777
       3779.7330       1.0927254
       3780.6197      0.96002463
       3781.5063       1.0447066
       3782.3929       1.1474363
       3783.2795       1.0827153
       3784.1662       1.0450524
       3785.0528       1.0170005
       3785.9394      0.99353269
       3786.8260      0.96319449
       3787.7127      0.95947516
       3788.5993      0.91623441
       3789.4859      0.88287734
       3790.3726       1.0000362
       3791.2592      0.82433186
       3792.1458      0.81500279
       3793.0324      0.74642276
       3793.9191      0.72769673
       3794.8057      0.83683005
       3795.6923      0.88966058
       3796.5789      0.73673725
       3797.4656      0.79014598
       3798.3522      0.95146619
       3799.2388      0.80217969
       3800.1254      0.89661211
       3801.0121      0.89210584
       3801.8987       1.0493374
       3802.7853      0.91718506
       3803.6720       1.0274438
       3804.5586      0.90128677
       3805.4452       1.0861952
       3806.3318       1.0611458
       3807.2185       1.0164273
       3808.1051       1.0783708
       3808.9917      0.97739742
       3809.8783       1.0878761
       3810.7650       1.1046512
       3811.6516       1.1133727
       3812.5382       1.1864132
       3813.4248       1.0471843
       3814.3115       1.0376339
       3815.1981       1.0475280
       3816.0847       1.0996188
       3816.9713       1.0655811
       3817.8580       1.0566752
       3818.7446       1.0205129
       3819.6312       1.1263292
       3820.5179      0.98570140
       3821.4045      0.93406156
       3822.2911      0.85375425
       3823.1777       1.0539541
       3824.0644       1.0212601
       3824.9510      0.94877414
       3825.8376      0.82285047
       3826.7242      0.89169995
       3827.6109      0.75106965
       3828.4975      0.96885883
       3829.3841      0.83582028
       3830.2707      0.90142194
       3831.1574      0.89763512
       3832.0440      0.99391843
       3832.9306      0.82951754
       3833.8173      0.81633836
       3834.7039      0.85344087
       3835.5905      0.80487850
       3836.4771      0.91801204
       3837.3638      0.92952513
       3838.2504      0.90032879
       3839.1370       1.0138840
       3840.0236      0.98855078
       3840.9103      0.93308061
       3841.7969      0.99076519
       3842.6835       1.1148941
       3843.5701       1.0103498
       3844.4568       1.1106040
       3845.3434       1.1053789
       3846.2300       1.1173169
       3847.1166       1.1619848
       3848.0033       1.1511897
       3848.8899       1.1560916
       3849.7765      0.99666067
       3850.6632       1.1338112
       3851.5498       1.0084606
       3852.4364       1.0876939
       3853.3230       1.1085843
       3854.2097       1.1845232
       3855.0963       1.2512639
       3855.9829       1.0451035
       3856.8695       1.1002873
       3857.7562       1.0666983
       3858.6428       1.1027046
       3859.5294       1.2463989
       3860.4160       1.1977284
       3861.3027       1.1827537
       3862.1893       1.2356454
       3863.0759       1.2864839
       3863.9625       1.2970199
       3864.8492       1.1405948
       3865.7358       1.2032302
       3866.6224       1.2804095
       3867.5091       1.2013174
       3868.3957       1.2493764
       3869.2823       1.2342788
       3870.1689       1.1583481
       3871.0556       1.1049810
       3871.9422       1.1677678
       3872.8288       1.2132583
       3873.7154       1.1652921
       3874.6021       1.0164600
       3875.4887       1.0648469
       3876.3753      0.95956787
       3877.2619       1.0106535
       3878.1486      0.93107801
       3879.0352      0.90799605
       3879.9218      0.97336241
       3880.8085      0.97297594
       3881.6951      0.88621143
       3882.5817      0.93942183
       3883.4683       1.0941169
       3884.3550       1.0140589
       3885.2416      0.93362732
       3886.1282       1.0157830
       3887.0148       1.0252107
       3887.9015      0.93907053
       3888.7881      0.84429874
       3889.6747      0.90560287
       3890.5613       1.0620275
       3891.4480      0.92491105
       3892.3346      0.89507898
       3893.2212       1.0966998
       3894.1078       1.0407364
       3894.9945       1.0833374
       3895.8811       1.2286888
       3896.7677       1.1670443
       3897.6544       1.0838449
       3898.5410       1.0936091
       3899.4276       1.1230757
       3900.3142       1.1051452
       3901.2009       1.1995524
       3902.0875       1.1037654
       3902.9741       1.2583729
       3903.8607       1.1892507
       3904.7474       1.2097873
       3905.6340       1.0849117
       3906.5206       1.1783731
       3907.4072       1.2825349
       3908.2939       1.2401626
       3909.1805       1.2844069
       3910.0671       1.1296312
       3910.9538       1.1677943
       3911.8404       1.1552572
       3912.7270       1.1084780
       3913.6136       1.3197112
       3914.5003       1.3199982
       3915.3869       1.2370451
       3916.2735       1.2136608
       3917.1601       1.1179945
       3918.0468       1.1481324
       3918.9334       1.3041260
       3919.8200       1.3189805
       3920.7066       1.2491476
       3921.5933       1.1205404
       3922.4799       1.0931894
       3923.3665       1.1650256
       3924.2531       1.0052428
       3925.1398      0.96707870
       3926.0264      0.97427031
       3926.9130      0.85237187
       3927.7997      0.87327468
       3928.6863      0.79934323
       3929.5729      0.88391111
       3930.4595       1.0024351
       3931.3462       1.1186167
       3932.2328       1.2471734
       3933.1194       1.0915751
       3934.0060       1.1118975
       3934.8927       1.1110449
       3935.7793       1.3373554
       3936.6659       1.3079970
       3937.5525       1.0754112
       3938.4392       1.2064196
       3939.3258       1.1355614
       3940.2124       1.3243001
       3941.0990       1.1922812
       3941.9857       1.2228420
       3942.8723       1.2803761
       3943.7589       1.2035919
       3944.6456       1.1447549
       3945.5322       1.0442793
       3946.4188       1.2487362
       3947.3054       1.1753827
       3948.1921       1.0897051
       3949.0787       1.1406664
       3949.9653       1.1560706
       3950.8519       1.0652370
       3951.7386       1.1550378
       3952.6252      0.95647160
       3953.5118       1.0633972
       3954.3984       1.0550012
       3955.2851       1.0472580
       3956.1717      0.97340792
       3957.0583      0.87450105
       3957.9450      0.72987807
       3958.8316      0.84098817
       3959.7182      0.79043521
       3960.6048      0.83383712
       3961.4915      0.98166758
       3962.3781      0.77396474
       3963.2647      0.94052497
       3964.1513      0.87167812
       3965.0380       1.0287249
       3965.9246      0.91469197
       3966.8112      0.87202715
       3967.6978      0.82448740
       3968.5845       1.0099889
       3969.4711      0.96537111
       3970.3577       1.0331138
       3971.2443       1.0601826
       3972.1310       1.0557907
       3973.0176       1.1092324
       3973.9042       1.1529072
       3974.7909       1.1342999
       3975.6775       1.0939613
       3976.5641       1.2300152
       3977.4507       1.1375526
       3978.3374       1.1743334
       3979.2240       1.3253470
       3980.1106       1.3167967
       3980.9972       1.1350019
       3981.8839       1.2856385
       3982.7705       1.2896384
       3983.6571       1.3149477
       3984.5437       1.2895101
       3985.4304       1.1566034
       3986.3170       1.3368073
       3987.2036       1.1774055
       3988.0903       1.1903419
       3988.9769       1.2863420
       3989.8635       1.3369766
       3990.7501       1.1243907
       3991.6368       1.3000822
       3992.5234       1.2491799
       3993.4100       1.4153043
       3994.2966       1.2390671
       3995.1833       1.3382855
       3996.0699       1.1542910
       3996.9565       1.2076724
       3997.8431       1.2025732
       3998.7298       1.2733073
       3999.6164       1.2588710
       4000.5030       1.3080997
       4001.3896       1.2517570
       4002.2763       1.3215423
       4003.1629       1.3029595
       4004.0495       1.4240681
       4004.9362       1.3563114
       4005.8228       1.4128861
       4006.7094       1.1987027
       4007.5960       1.2754140
       4008.4827       1.3391550
       4009.3693       1.4392534
       4010.2559       1.3302848
       4011.1425       1.3515363
       4012.0292       1.2997582
       4012.9158       1.2351140
       4013.8024       1.2302284
       4014.6890       1.3361068
       4015.5757       1.3109373
       4016.4623       1.3049347
       4017.3489       1.2863171
       4018.2355       1.1514441
       4019.1222       1.4049752
       4020.0088       1.2036186
       4020.8954       1.3389503
       4021.7821       1.2928538
       4022.6687       1.2966542
       4023.5553       1.3019313
       4024.4419       1.2582671
       4025.3286       1.3165910
       4026.2152       1.2868857
       4027.1018       1.2886230
       4027.9884       1.4233381
       4028.8751       1.3764260
       4029.7617       1.4107298
       4030.6483       1.2768362
       4031.5349       1.3871884
       4032.4216       1.3325773
       4033.3082       1.2848613
       4034.1948       1.3241470
       4035.0815       1.2869050
       4035.9681       1.2511643
       4036.8547       1.2875636
       4037.7413       1.3579419
       4038.6280       1.3268208
       4039.5146       1.3356124
       4040.4012       1.4279835
       4041.2878       1.1980678
       4042.1745       1.3494817
       4043.0611       1.3274872
       4043.9477       1.2962606
       4044.8343       1.3995393
       4045.7210       1.3020235
       4046.6076       1.3021812
       4047.4942       1.2725292
       4048.3808       1.3112933
       4049.2675       1.2141473
       4050.1541       1.2828086
       4051.0407       1.2635537
       4051.9274       1.3116167
       4052.8140       1.3087225
       4053.7006       1.2137439
       4054.5872       1.2405113
       4055.4739       1.3075595
       4056.3605       1.3288354
       4057.2471       1.2387312
       4058.1337       1.3105073
       4059.0204       1.3455369
       4059.9070       1.3123938
       4060.7936       1.2787609
       4061.6802       1.2614255
       4062.5669       1.2918077
       4063.4535       1.3365126
       4064.3401       1.2219498
       4065.2268       1.1170912
       4066.1134       1.2944720
       4067.0000       1.2081596
       4067.8866       1.3516874
       4068.7733       1.3544327
       4069.6599       1.2784885
       4070.5465       1.2541113
       4071.4331       1.2246846
       4072.3198       1.2091901
       4073.2064       1.1998118
       4074.0930       1.2646109
       4074.9796       1.2724209
       4075.8663       1.1424497
       4076.7529       1.1621365
       4077.6395       1.2005898
       4078.5261       1.1025070
       4079.4128       1.2273574
       4080.2994       1.2986945
       4081.1860       1.1031610
       4082.0727       1.1465081
       4082.9593       1.1626309
       4083.8459       1.1233274
       4084.7325       1.0200987
       4085.6192       1.0754515
       4086.5058       1.0446144
       4087.3924       1.1026849
       4088.2790       1.1057948
       4089.1657       1.3392404
       4090.0523       1.3469340
       4090.9389       1.5150781
       4091.8255       1.3523740
       4092.7122       1.2949162
       4093.5988       1.2889598
       4094.4854      0.99333960
       4095.3720       1.0006956
       4096.2587       1.0548430
       4097.1453       1.1113621
       4098.0319       1.0597525
       4098.9186       1.0845024
       4099.8052       1.0260081
       4100.6918       1.0860201
       4101.5784       1.2234357
       4102.4651       1.1773465
       4103.3517       1.2502692
       4104.2383       1.1190522
       4105.1249       1.1903994
       4106.0116       1.1229879
       4106.8982       1.1802194
       4107.7848       1.1438259
       4108.6714       1.1665284
       4109.5581       1.0721188
       4110.4447       1.2023969
       4111.3313       1.0567814
       4112.2180       1.1462259
       4113.1046       1.2773012
       4113.9912       1.0299972
       4114.8778       1.1946259
       4115.7645       1.1298430
       4116.6511       1.0994600
       4117.5377       1.1345408
       4118.4243       1.2193625
       4119.3110       1.2229022
       4120.1976       1.1629430
       4121.0842       1.3732405
       4121.9708       1.1967258
       4122.8575       1.1574021
       4123.7441       1.2569755
       4124.6307       1.2839905
       4125.5173       1.2997484
       4126.4040       1.3929350
       4127.2906       1.2222070
       4128.1772       1.3317513
       4129.0639       1.2659054
       4129.9505       1.2218632
       4130.8371       1.2476783
       4131.7237       1.1778265
       4132.6104       1.1958126
       4133.4970       1.2459296
       4134.3836       1.2701228
       4135.2702       1.3367814
       4136.1569       1.2476486
       4137.0435       1.2074497
       4137.9301       1.2338682
       4138.8167       1.2925567
       4139.7034       1.3915764
       4140.5900       1.3769082
       4141.4766       1.3712981
       4142.3632       1.2175582
       4143.2499       1.3491768
       4144.1365       1.2383616
       4145.0231       1.2184773
       4145.9098       1.2830002
       4146.7964       1.2157690
       4147.6830       1.3348443
       4148.5696       1.4387982
       4149.4563       1.2857510
       4150.3429       1.2757466
       4151.2295       1.3228677
       4152.1161       1.3007981
       4153.0028       1.4156420
       4153.8894       1.2663984
       4154.7760       1.3431639
       4155.6626       1.2482998
       4156.5493       1.1959266
       4157.4359       1.3802396
       4158.3225       1.2227309
       4159.2092       1.2769832
       4160.0958       1.2742376
       4160.9824       1.1246868
       4161.8690       1.1910552
       4162.7557       1.1540875
       4163.6423       1.2914854
       4164.5289       1.2489791
       4165.4155       1.3014572
       4166.3022       1.2244972
       4167.1888       1.3416053
       4168.0754       1.1728734
       4168.9620       1.4053699
       4169.8487       1.1352657
       4170.7353       1.2642257
       4171.6219       1.3489873
       4172.5085       1.2521976
       4173.3952       1.2324436
       4174.2818       1.2383135
       4175.1684       1.2972150
       4176.0551       1.3472774
       4176.9417       1.2969028
       4177.8283       1.3848000
       4178.7149       1.2266980
       4179.6016       1.2792397
       4180.4882       1.2291881
       4181.3748       1.2998380
       4182.2614       1.2383158
       4183.1481       1.2699628
       4184.0347       1.2572338
       4184.9213       1.1778022
       4185.8079       1.1599328
       4186.6946       1.3695448
       4187.5812       1.1262818
       4188.4678       1.2753851
       4189.3545       1.2276263
       4190.2411       1.3001022
       4191.1277       1.2887026
       4192.0143       1.4201637
       4192.9010       1.3324917
       4193.7876       1.3398169
       4194.6742       1.2380379
       4195.5608       1.2899974
       4196.4475       1.2835881
       4197.3341       1.2356754
       4198.2207       1.2139187
       4199.1073       1.2624585
       4199.9940       1.2693076
       4200.8806       1.3260215
       4201.7672       1.3381921
       4202.6538       1.3496589
       4203.5405       1.2383844
       4204.4271       1.3013800
       4205.3137       1.4260722
       4206.2004       1.4992557
       4207.0870       1.3304414
       4207.9736       1.1773918
       4208.8602       1.2338315
       4209.7469       1.2734207
       4210.6335       1.2269718
       4211.5201       1.2598995
       4212.4067       1.2029868
       4213.2934       1.2601381
       4214.1800       1.2323555
       4215.0666       1.2538919
       4215.9532       1.2992072
       4216.8399       1.3333397
       4217.7265       1.2353662
       4218.6131       1.3275961
       4219.4997       1.2392222
       4220.3864       1.3037565
       4221.2730       1.2671294
       4222.1596       1.3861986
       4223.0463       1.2437897
       4223.9329       1.2422905
       4224.8195       1.1393737
       4225.7061       1.3558549
       4226.5928       1.2488683
       4227.4794       1.4374238
       4228.3660       1.3301254
       4229.2526       1.2882461
       4230.1393       1.2667302
       4231.0259       1.2169443
       4231.9125       1.3197151
       4232.7991       1.3354683
       4233.6858       1.1904492
       4234.5724       1.2265298
       4235.4590       1.2803186
       4236.3457       1.2204843
       4237.2323       1.4021816
       4238.1189       1.2399372
       4239.0055       1.3834936
       4239.8922       1.2754809
       4240.7788       1.4247533
       4241.6654       1.2717367
       4242.5520       1.1659690
       4243.4387       1.2417249
       4244.3253       1.2658264
       4245.2119       1.3045862
       4246.0985       1.2684740
       4246.9852       1.2749877
       4247.8718       1.2511609
       4248.7584       1.4038158
       4249.6450       1.2321462
       4250.5317       1.2024742
       4251.4183       1.2323352
       4252.3049       1.1771043
       4253.1916       1.2688912
       4254.0782       1.1232322
       4254.9648       1.1212707
       4255.8514       1.3029971
       4256.7381       1.2119933
       4257.6247       1.2804771
       4258.5113       1.1725085
       4259.3979       1.2644513
       4260.2846       1.1342839
       4261.1712       1.2593263
       4262.0578       1.3577536
       4262.9444       1.2870659
       4263.8311       1.3205259
       4264.7177       1.2974057
       4265.6043       1.1576286
       4266.4910       1.2557353
       4267.3776       1.2141582
       4268.2642       1.2017416
       4269.1508       1.2211348
       4270.0375       1.1658927
       4270.9241       1.1717249
       4271.8107       1.1680869
       4272.6973       1.1395106
       4273.5840       1.1553821
       4274.4706       1.0907644
       4275.3572       1.2493982
       4276.2438       1.2971083
       4277.1305       1.2781659
       4278.0171       1.0662614
       4278.9037       1.1504779
       4279.7903       1.2877158
       4280.6770       1.2477639
       4281.5636       1.1722200
       4282.4502       1.1773072
       4283.3369       1.1954996
       4284.2235       1.0985161
       4285.1101       1.2130287
       4285.9967       1.1392306
       4286.8834       1.1205110
       4287.7700       1.1531229
       4288.6566       1.1391643
       4289.5432       1.1176215
       4290.4299       1.2010342
       4291.3165       1.1985417
       4292.2031       1.1638049
       4293.0897       1.1747268
       4293.9764       1.2295946
       4294.8630       1.2923904
       4295.7496       1.2494639
       4296.6362       1.2391447
       4297.5229       1.2331754
       4298.4095       1.1599603
       4299.2961       1.2507149
       4300.1828       1.2634349
       4301.0694       1.2512320
       4301.9560       1.2618559
       4302.8426       1.1578366
       4303.7293       1.2298626
       4304.6159       1.1828610
       4305.5025       1.1380938
       4306.3891       1.1328451
       4307.2758       1.1222505
       4308.1624       1.1469680
       4309.0490       1.2205710
       4309.9356       1.1376183
       4310.8223       1.1153372
       4311.7089       1.1807388
       4312.5955       1.1470934
       4313.4822       1.0976179
       4314.3688       1.0457547
       4315.2554       1.1174445
       4316.1420       1.0571347
       4317.0287       1.1343237
       4317.9153       1.4360840
       4318.8019       1.6182166
       4319.6885       1.7227480
       4320.5752       2.0016632
       4321.4618       1.9954458
       4322.3484       1.9721184
       4323.2350       1.8547964
       4324.1217       1.4412187
       4325.0083       1.1356041
       4325.8949       1.0347565
       4326.7815       1.0031221
       4327.6682      0.95849392
       4328.5548       1.0500280
       4329.4414      0.99119589
       4330.3281       1.0177220
       4331.2147       1.0288221
       4332.1013       1.1397755
       4332.9879       1.1940157
       4333.8746       1.1784553
       4334.7612       1.2714232
       4335.6478       1.1873724
       4336.5344       1.1960203
       4337.4211       1.1095696
       4338.3077       1.1967292
       4339.1943       1.3568133
       4340.0809       1.2782635
       4340.9676       1.2124877
       4341.8542       1.2166798
       4342.7408       1.3199841
       4343.6275       1.3082562
       4344.5141       1.1445104
       4345.4007       1.2114656
       4346.2873       1.2099722
       4347.1740       1.1479762
       4348.0606       1.1873027
       4348.9472       1.2751931
       4349.8338       1.2383043
       4350.7205       1.2163941
       4351.6071       1.1102250
       4352.4937       1.1961530
       4353.3803       1.2825717
       4354.2670       1.2608063
       4355.1536       1.1837618
       4356.0402       1.2339946
       4356.9268       1.3048244
       4357.8135       1.1967662
       4358.7001       1.2762986
       4359.5867       1.1702913
       4360.4734       1.2293516
       4361.3600       1.2323208
       4362.2466       1.1713770
       4363.1332       1.0756915
       4364.0199       1.1333762
       4364.9065       1.1388467
       4365.7931       1.2412679
       4366.6797       1.1160188
       4367.5664       1.2021110
       4368.4530       1.1967175
       4369.3396       1.1239118
       4370.2262       1.2459440
       4371.1129       1.2966592
       4371.9995       1.3396090
       4372.8861       1.1955490
       4373.7727       1.1597544
       4374.6594       1.2946916
       4375.5460       1.2328682
       4376.4326       1.1904475
       4377.3193       1.2163236
       4378.2059       1.2719365
       4379.0925       1.1110474
       4379.9791       1.2354056
       4380.8658       1.2463054
       4381.7524       1.2993980
       4382.6390       1.3001544
       4383.5256       1.3081523
       4384.4123       1.1070207
       4385.2989       1.2931864
       4386.1855       1.3514951
       4387.0721       1.2591535
       4387.9588       1.2869006
       4388.8454       1.3035515
       4389.7320       1.2798699
       4390.6187       1.2002279
       4391.5053       1.1974820
       4392.3919       1.1377141
       4393.2785       1.3299896
       4394.1652       1.2240095
       4395.0518       1.2393381
       4395.9384       1.2955180
       4396.8250       1.1407606
       4397.7117       1.2497283
       4398.5983       1.2921877
       4399.4849       1.1800610
       4400.3715       1.2598156
       4401.2582       1.1997044
       4402.1448       1.2903848
       4403.0314       1.2792193
       4403.9180       1.2173841
       4404.8047       1.2142834
       4405.6913       1.2491854
       4406.5779       1.2789566
       4407.4646       1.2001801
       4408.3512       1.3388613
       4409.2378       1.2243814
       4410.1244       1.2930771
       4411.0111       1.2042634
       4411.8977       1.2974323
       4412.7843       1.1552978
       4413.6709       1.2506808
       4414.5576       1.2419902
       4415.4442       1.1537367
       4416.3308       1.3042522
       4417.2174       1.2996881
       4418.1041       1.1859636
       4418.9907       1.2661336
       4419.8773       1.3011329
       4420.7640       1.2283795
       4421.6506       1.2947364
       4422.5372       1.2855912
       4423.4238       1.3183767
       4424.3105       1.2346486
       4425.1971       1.1933842
       4426.0837       1.2834141
       4426.9703       1.2839923
       4427.8570       1.2715565
       4428.7436       1.3406312
       4429.6302       1.1731369
       4430.5168       1.1920526
       4431.4035       1.2551609
       4432.2901       1.2092874
       4433.1767       1.2578063
       4434.0633       1.2163574
       4434.9500       1.1420441
       4435.8366       1.2909214
       4436.7232       1.2172264
       4437.6099       1.2240950
       4438.4965       1.2102306
       4439.3831       1.1707333
       4440.2697       1.1641305
       4441.1564       1.2873586
       4442.0430       1.2670357
       4442.9296       1.2422541
       4443.8162       1.3209763
       4444.7029       1.2029436
       4445.5895       1.3493826
       4446.4761       1.2838451
       4447.3627       1.3458023
       4448.2494       1.3119926
       4449.1360       1.3050827
       4450.0226       1.4163855
       4450.9092       1.3857828
       4451.7959       1.2074502
       4452.6825       1.2997698
       4453.5691       1.2899534
       4454.4558       1.2447416
       4455.3424       1.1209824
       4456.2290       1.2386876
       4457.1156       1.2920986
       4458.0023       1.3170065
       4458.8889       1.2613289
       4459.7755       1.2881874
       4460.6621       1.3680203
       4461.5488       1.3161458
       4462.4354       1.2452008
       4463.3220       1.2459176
       4464.2086       1.2257455
       4465.0953       1.4386089
       4465.9819       1.2658634
       4466.8685       1.2621840
       4467.7552       1.2391951
       4468.6418       1.2762290
       4469.5284       1.1908568
       4470.4150       1.2196764
       4471.3017       1.1807099
       4472.1883       1.2896317
       4473.0749       1.2847669
       4473.9615       1.3932793
       4474.8482       1.3018779
       4475.7348       1.3154247
       4476.6214       1.1836200
       4477.5080       1.3054820
       4478.3947       1.2939460
       4479.2813       1.2376096
       4480.1679       1.3249902
       4481.0545       1.2832937
       4481.9412       1.4032045
       4482.8278       1.3016520
       4483.7144       1.2457717
       4484.6011       1.1546954
       4485.4877       1.2750837
       4486.3743       1.3431716
       4487.2609       1.3058143
       4488.1476       1.2652911
       4489.0342       1.1863411
       4489.9208       1.1797682
       4490.8074       1.2610157
       4491.6941       1.2382293
       4492.5807       1.2255404
       4493.4673       1.2263977
       4494.3539       1.1902642
       4495.2406       1.1608707
       4496.1272       1.2743865
       4497.0138       1.1831817
       4497.9004       1.2287212
       4498.7871       1.2812050
       4499.6737       1.1763911
       4500.5603       1.1977434
       4501.4470       1.3271097
       4502.3336       1.2302392
       4503.2202       1.1173116
       4504.1068       1.2724916
       4504.9935       1.1718678
       4505.8801       1.1849174
       4506.7667       1.2236367
       4507.6533       1.1575998
       4508.5400       1.2145549
       4509.4266       1.2154358
       4510.3132       1.0564596
       4511.1998       1.1249427
       4512.0865       1.2087957
       4512.9731       1.1507922
       4513.8597       1.0944999
       4514.7464       1.2102647
       4515.6330       1.1659518
       4516.5196       1.1338823
       4517.4062       1.3084811
       4518.2929       1.1444178
       4519.1795       1.1571935
       4520.0661       1.0880839
       4520.9527       1.0611502
       4521.8394       1.0635612
       4522.7260       1.0430811
       5021.6654       3.7782085
       5022.6412       4.1986545
       5023.6171       4.1403164
       5024.5929       3.6779774
       5025.5688       3.4930874
       5026.5446       3.3152133
       5027.5205       3.1937167
       5028.4963       3.0083378
       5029.4722       2.7467995
       5030.4480       2.8469476
       5031.4239       2.9523250
       5032.3997       3.1866351
       5033.3756       3.1072367
       5034.3514       3.1891393
       5035.3273       3.2772354
       5036.3031       3.3867065
       5037.2790       3.3540428
       5038.2548       3.3895055
       5039.2307       3.2938194
       5040.2065       3.1986522
       5041.1824       3.4058498
       5042.1583       3.5350640
       5043.1341       3.3672338
       5044.1100       3.5802457
       5045.0858       3.4978182
       5046.0617       3.5048156
       5047.0375       3.5120834
       5048.0134       3.3292132
       5048.9892       3.3698293
       5049.9651       3.4142697
       5050.9409       3.7261339
       5051.9168       4.1229828
       5052.8926       3.9987754
       5053.8685       4.1202177
       5054.8443       3.9703119
       5055.8202       3.9420488
       5056.7960       4.0542500
       5057.7719       3.7410467
       5058.7477       3.6281973
       5059.7236       3.3985256
       5060.6994       3.6416712
       5061.6753       3.3174435
       5062.6511       3.3592914
       5063.6270       3.5965096
       5064.6028       3.8464858
       5065.5787       4.0853074
       5066.5546       3.5742033
       5067.5304       3.7676578
       5068.5063       3.7250266
       5069.4821       3.7207622
       5070.4580       3.8111309
       5071.4338       3.7988337
       5072.4097       3.6542177
       5073.3855       3.5293533
       5074.3614       3.3977685
       5075.3372       3.6289476
       5076.3131       4.1772123
       5077.2889       3.9026240
       5078.2648       3.9640555
       5079.2406       3.6085440
       5080.2165       3.8588315
       5081.1923       3.8459102
       5082.1682       3.5605218
       5083.1440       3.8049319
       5084.1199       4.0336787
       5085.0957       3.9505606
       5086.0716       3.8306943
       5087.0474       3.6781350
       5088.0233       3.5027957
       5088.9991       3.5208155
       5089.9750       3.7887499
       5090.9509       3.7684654
       5091.9267       3.4921997
       5092.9026       3.6697200
       5093.8784       3.7023475
       5094.8543       3.4079673
       5095.8301       3.4755668
       5096.8060       3.2239374
       5097.7818       3.6142591
       5098.7577       3.5555516
       5099.7335       3.9210430
       5100.7094       3.6353120
       5101.6852       3.2669207
       5102.6611       3.7846809
       5103.6369       3.6614464
       5104.6128       3.7735430
       5105.5886       3.6041758
       5106.5645       3.7253790
       5107.5403       3.6522124
       5108.5162       3.3012441
       5109.4920       3.5972226
       5110.4679       3.7006741
       5111.4437       3.6653775
       5112.4196       4.0588955
       5113.3955       3.6944696
       5114.3713       3.3975725
       5115.3472       3.7022696
       5116.3230       3.3287152
       5117.2989       3.6463721
       5118.2747       3.3634075
       5119.2506       3.4331044
       5120.2264       3.4128219
       5121.2023       3.3515243
       5122.1781       3.6614618
       5123.1540       3.7076178
       5124.1298       3.5697887
       5125.1057       4.0042213
       5126.0815       3.8095848
       5127.0574       2.8695681
       5128.0332       3.1086681
       5129.0091       2.9661943
       5129.9849       3.1957502
       5130.9608       3.0256412
       5131.9366       4.1753194
       5132.9125       4.7655516
       5133.8883       5.4382947
       5134.8642       4.1474803
       5135.8400       3.8487735
       5136.8159       3.3817907
       5137.7918       3.7923660
       5138.7676       3.5859954
       5139.7435       3.4749012
       5140.7193       3.6496203
       5141.6952       3.4427291
       5142.6710       3.5531946
       5143.6469       3.4870242
       5144.6227       3.7947819
       5145.5986       3.8108935
       5146.5744       3.2663431
       5147.5503       3.4683267
       5148.5261       3.4030342
       5149.5020       3.6469723
       5150.4778       3.3687509
       5151.4537       3.4494484
       5152.4295       3.4762117
       5153.4054       3.5183264
       5154.3812       3.4564857
       5155.3571       3.0883324
       5156.3329       3.6429502
       5157.3088       3.6162194
       5158.2846       3.6993499
       5159.2605       3.6302280
       5160.2363       3.4190994
       5161.2122       3.6731665
       5162.1881       3.7994031
       5163.1639       3.8623934
       5164.1398       3.8365575
       5165.1156       4.0422608
       5166.0915       3.7613675
       5167.0673       3.7425386
       5168.0432       3.7160359
       5169.0190       4.0083420
       5169.9949       3.8811909
       5170.9707       3.7222459
       5171.9466       3.6109419
       5172.9224       3.8611081
       5173.8983       3.6001918
       5174.8741       3.5105259
       5175.8500       3.3623716
       5176.8258       3.2056903
       5177.8017       3.3806707
       5178.7775       3.6986806
       5179.7534       3.2194083
       5180.7292       3.5009602
       5181.7051       3.5514544
       5182.6809       3.4615129
       5183.6568       3.0895339
       5184.6326       3.8567931
       5185.6085       3.6636246
       5186.5844       4.0099410
       5187.5602       4.3034727
       5188.5361       3.4206862
       5189.5119       3.4726937
       5190.4878       3.5502998
       5191.4636       3.6588595
       5192.4395       3.7993690
       5193.4153       3.4473025
       5194.3912       3.5274473
       5195.3670       3.4437663
       5196.3429       3.5497217
       5197.3187       3.4453228
       5198.2946       3.3681607
       5199.2704       3.7099095
       5200.2463       3.7408937
       5201.2221       3.7580465
       5202.1980       3.8316407
       5203.1738       3.8794456
       5204.1497       4.0030670
       5205.1255       3.8762569
       5206.1014       3.8150419
       5207.0772       3.7394317
       5208.0531       3.9173058
       5209.0289       3.6315845
       5210.0048       3.8224984
       5210.9807       3.6507725
       5211.9565       3.8378413
       5212.9324       3.7035647
       5213.9082       3.9335258
       5214.8841       3.8383920
       5215.8599       3.7874790
       5216.8358       3.9003277
       5217.8116       3.7154973
       5218.7875       3.7678839
       5219.7633       3.6048729
       5220.7392       3.6275757
       5221.7150       3.7859413
       5222.6909       3.6398703
       5223.6667       3.4838360
       5224.6426       3.4628821
       5225.6184       3.3880475
       5226.5943       3.8183332
       5227.5701       3.9258418
       5228.5460       3.8617707
       5229.5218       3.4992285
       5230.4977       3.6495962
       5231.4735       3.5697781
       5232.4494       3.7408765
       5233.4252       3.3392843
       5234.4011       3.6834486
       5235.3770       3.6467800
       5236.3528       3.3744819
       5237.3287       3.3273789
       5238.3045       3.5929334
       5239.2804       3.4240340
       5240.2562       3.3248375
       5241.2321       3.4332917
       5242.2079       3.7031065
       5243.1838       3.8400279
       5244.1596       3.6294380
       5245.1355       3.8828787
       5246.1113       3.7629385
       5247.0872       3.8104816
       5248.0630       3.7426666
       5249.0389       3.9526609
       5250.0147       3.6887768
       5250.9906       3.6563101
       5251.9664       3.5724750
       5252.9423       3.5413547
       5253.9181       3.5754616
       5254.8940       3.4015368
       5255.8698       3.5931438
       5256.8457       3.7274107
       5257.8215       3.8114105
       5258.7974       3.9372115
       5259.7733       3.9807101
       5260.7491       3.8742380
       5261.7250       3.7159466
       5262.7008       3.7165609
       5263.6767       3.7183889
       5264.6525       3.6967838
       5265.6284       3.7660697
       5266.6042       3.6380891
       5267.5801       3.7356764
       5268.5559       3.7771284
       5269.5318       3.7309663
       5270.5076       3.8246375
       5271.4835       3.5646065
       5272.4593       3.7819151
       5273.4352       3.5142270
       5274.4110       3.9260129
       5275.3869       3.8979394
       5276.3627       4.0851177
       5277.3386       3.8781368
       5278.3144       3.9435260
       5279.2903       3.7003601
       5280.2661       3.7055210
       5281.2420       3.7705131
       5282.2178       3.9384767
       5283.1937       3.5988357
       5284.1696       3.8176911
       5285.1454       3.8189604
       5286.1213       3.9776767
       5287.0971       3.6551583
       5288.0730       3.6904146
       5289.0488       3.6459945
       5290.0247       3.6464655
       5291.0005       3.6399001
       5291.9764       3.6735775
       5292.9522       3.8365016
       5293.9281       3.8523616
       5294.9039       3.3545752
       5295.8798       3.7964372
       5296.8556       3.5444645
       5297.8315       3.5635142
       5298.8073       3.6996481
       5299.7832       3.2866325
       5300.7590       3.7145736
       5301.7349       3.3998029
       5302.7107       3.4009319
       5303.6866       3.6124306
       5304.6624       3.6548970
       5305.6383       3.3829664
       5306.6141       3.8964643
       5307.5900       3.7723574
       5308.5659       3.7401130
       5309.5417       3.5683736
       5310.5176       3.9255658
       5311.4934       3.6736365
       5312.4693       3.5352127
       5313.4451       3.7580482
       5314.4210       3.5244971
       5315.3968       3.5061143
       5316.3727       3.4236583
       5317.3485       3.3908127
       5318.3244       3.3825857
       5319.3002       3.3665826
       5320.2761       3.3736743
       5321.2519       3.8011810
       5322.2278       3.6874245
       5323.2036       3.8043837
       5324.1795       3.6455985
       5325.1553       3.7714522
       5326.1312       3.5925444
       5327.1070       3.9130215
       5328.0829       3.6098313
       5329.0587       3.5090024
       5330.0346       3.6607560
       5331.0104       4.2470966
       5331.9863       3.8961558
       5332.9622       3.7860947
       5333.9380       3.8326288
       5334.9139       3.9784049
       5335.8897       3.8323503
       5336.8656       3.6514467
       5337.8414       3.4135109
       5338.8173       3.6951739
       5339.7931       3.8224235
       5340.7690       3.4444009
       5341.7448       3.4547802
       5342.7207       3.4940062
       5343.6965       3.3842584
       5344.6724       3.1855834
       5345.6482       3.3981317
       5346.6241       3.7941147
       5347.5999       3.2021116
       5348.5758       3.5484698
       5349.5516       3.5925145
       5350.5275       3.9619231
       5351.5033       3.5828585
       5352.4792       3.6637791
       5353.4550       3.5509986
       5354.4309       3.6631512
       5355.4067       3.5982274
       5356.3826       3.5144190
       5357.3585       3.5253377
       5358.3343       3.5676871
       5359.3102       3.6715011
       5360.2860       3.7585403
       5361.2619       3.9438074
       5362.2377       3.6918836
       5363.2136       3.6546260
       5364.1894       3.6601276
       5365.1653       3.6530535
       5366.1411       3.4450068
       5367.1170       3.6312517
       5368.0928       3.6023581
       5369.0687       3.6941268
       5370.0445       3.5463908
       5371.0204       3.6699818
       5371.9962       3.4576663
       5372.9721       3.4200063
       5373.9479       3.5563371
       5374.9238       3.4637995
       5375.8996       3.5049124
       5376.8755       3.6019338
       5377.8513       3.4498875
       5378.8272       3.6041484
       5379.8030       3.6113615
       5380.7789       3.6193660
       5381.7548       3.3832406
       5382.7306       3.2190002
       5383.7065       3.2428922
       5384.6823       3.4824548
       5385.6582       3.3218872
       5386.6340       3.1973596
       5387.6099       3.6280383
       5388.5857       3.4161609
       5389.5616       3.3976328
       5390.5374       3.6339883
       5391.5133       3.6382858
       5392.4891       3.7191844
       5393.4650       3.5108099
       5394.4408       3.7197212
       5395.4167       3.6553310
       5396.3925       3.6715975
       5397.3684       3.6803247
       5398.3442       3.6760936
       5399.3201       3.4419151
       5400.2959       3.4284415
       5401.2718       3.8162051
       5402.2476       3.8694253
       5403.2235       3.5894699
       5404.1993       3.7290850
       5405.1752       3.6262427
       5406.1511       3.7519774
       5407.1269       3.7475576
       5408.1028       3.5802499
       5409.0786       3.7146061
       5410.0545       3.4476540
       5411.0303       3.6333068
       5412.0062       3.5233023
       5412.9820       3.6431839
       5413.9579       3.8626858
       5414.9337       3.6660764
       5415.9096       3.7305719
       5416.8854       3.7223036
       5417.8613       3.7495648
       5418.8371       3.8359318
       5419.8130       3.7443723
       5420.7888       3.6593960
       5421.7647       3.5530316
       5422.7405       3.6309383
       5423.7164       3.6889895
       5424.6922       3.6900994
       5425.6681       3.7056877
       5426.6439       3.6132668
       5427.6198       3.5276985
       5428.5956       3.6817359
       5429.5715       3.5360175
       5430.5474       3.4595594
       5431.5232       3.7450637
       5432.4991       3.5787044
       5433.4749       3.5483874
       5434.4508       3.4005983
       5435.4266       3.6456860
       5436.4025       3.6846653
       5437.3783       3.6091191
       5438.3542       3.7711057
       5439.3300       3.6426028
       5440.3059       3.5014523
       5441.2817       3.5712548
       5442.2576       3.6855319
       5443.2334       3.7445823
       5444.2093       3.4498469
       5445.1851       3.5373211
       5446.1610       3.5176302
       5447.1368       3.8460274
       5448.1127       3.6221184
       5449.0885       3.6394006
       5450.0644       3.7437056
       5451.0402       3.6479224
       5452.0161       3.2648359
       5452.9920       3.4473904
       5453.9678       3.4493463
       5454.9437       3.4742333
       5455.9195       3.5518842
       5456.8954       3.5118662
       5457.8712       3.4427467
       5458.8471       3.5438036
       5459.8229       3.5087290
       5460.7988       3.6186950
       5461.7746       3.6621058
       5462.7505       3.7629051
       5463.7263       3.5736572
       5464.7022       3.7411983
       5465.6780       3.8992654
       5466.6539       3.6671263
       5467.6297       3.5584143
       5468.6056       3.4773993
       5469.5814       3.6020009
       5470.5573       3.8687685
       5471.5331       3.6330642
       5472.5090       3.3755780
       5473.4848       3.6705808
       5474.4607       3.8210828
       5475.4365       3.8046484
       5476.4124       3.7274213
       5477.3883       3.4970026
       5478.3641       3.6661733
       5479.3400       3.5293040
       5480.3158       3.5753907
       5481.2917       3.7827376
       5482.2675       3.5708647
       5483.2434       3.4853998
       5484.2192       3.4563997
       5485.1951       3.4962330
       5486.1709       3.4939262
       5487.1468       3.3077048
       5488.1226       3.4779085
       5489.0985       3.3226715
       5490.0743       3.4637687
       5491.0502       3.5246346
       5492.0260       3.4358020
       5493.0019       3.4616746
       5493.9777       3.4709937
       5494.9536       3.6329597
       5495.9294       3.5871693
       5496.9053       3.4630165
       5497.8811       3.4474365
       5498.8570       3.5629076
       5499.8328       3.5107321
       5500.8087       3.6335860
       5501.7846       3.4558826
       5502.7604       3.6696680
       5503.7363       3.5371050
       5504.7121       3.4177723
       5505.6880       3.5642558
       5506.6638       3.3652669
       5507.6397       3.3042812
       5508.6155       3.5526645
       5509.5914       3.5846614
       5510.5672       3.3444998
       5511.5431       3.6076854
       5512.5189       3.5552819
       5513.4948       3.6316394
       5514.4706       3.6670996
       5515.4465       3.3936684
       5516.4223       3.6328488
       5517.3982       3.5780609
       5518.3740       3.5014993
       5519.3499       3.5546314
       5520.3257       3.5934667
       5521.3016       3.4067491
       5522.2774       3.6859580
       5523.2533       3.5712281
       5524.2291       3.5223555
       5525.2050       3.4758498
       5526.1809       3.5621610
       5527.1567       3.5836013
       5528.1326       3.7128251
       5529.1084       3.7591242
       5530.0843       3.7566240
       5531.0601       3.4792015
       5532.0360       3.6616694
       5533.0118       3.6269551
       5533.9877       3.8407145
       5534.9635       3.7581566
       5535.9394       3.6422104
       5536.9152       3.5359781
       5537.8911       3.6648960
       5538.8669       3.5797650
       5539.8428       3.7720648
       5540.8186       3.5328434
       5541.7945       3.5326797
       5542.7703       3.6631380
       5543.7462       3.4852249
       5544.7220       3.5406460
       5545.6979       3.5508557
       5546.6737       3.7022175
       5547.6496       3.5846671
       5548.6254       3.6816381
       5549.6013       3.6865621
       5550.5772       3.6617933
       5551.5530       3.7316846
       5552.5289       3.5640419
       5553.5047       3.7175100
       5554.4806       3.5346091
       5555.4564       3.5041414
       5556.4323       3.7320657
       5557.4081       3.6550637
       5558.3840       3.6750569
       5559.3598       3.5873766
       5560.3357       3.5491935
       5561.3115       3.5498408
       5562.2874       3.5695710
       5563.2632       3.8555844
       5564.2391       3.7156422
       5565.2149       3.6492870
       5566.1908       3.7144901
       5567.1666       3.6366464
       5568.1425       3.5674227
       5569.1183       3.3660297
       5570.0942       3.4895754
       5571.0700       3.5793434
       5572.0459       3.5381842
       5573.0217       3.5850812
       5573.9976       3.6679857
       5574.9735       3.5028366
       5575.9493       3.6038273
       5576.9252       3.5501471
       5577.9010       3.4925406
       5578.8769       3.2624764
       5579.8527       3.7966999
       5580.8286       3.7279694
       5581.8044       3.5965286
       5582.7803       3.3058913
       5583.7561       3.7711711
       5584.7320       3.6248925
       5585.7078       3.8230089
       5586.6837       3.7991716
       5587.6595       3.6630446
       5588.6354       3.6366036
       5589.6112       3.7687903
       5590.5871       3.6681444
       5591.5629       3.5643086
       5592.5388       3.6478623
       5593.5146       3.8536955
       5594.4905       3.7669614
       5595.4663       3.7737308
       5596.4422       3.5890879
       5597.4180       3.5799838
       5598.3939       3.6031781
       5599.3698       3.7268620
       5600.3456       3.4521668
       5601.3215       3.5335487
       5602.2973       3.6427660
       5603.2732       3.4458616
       5604.2490       3.4245293
       5605.2249       3.5300904
       5606.2007       3.5236744
       5607.1766       3.4322821
       5608.1524       3.7050326
       5609.1283       3.6918675
       5610.1041       3.8645260
       5611.0800       3.4606239
       5612.0558       2.9338775
       5613.0317       3.1732781
       5614.0075       2.9204843
       5614.9834       2.9134863
       5615.9592       2.9260355
       5616.9351       2.9486231
       5617.9109       2.8330907
       5618.8868       3.0070906
       5619.8626       3.1098067
       5620.8385       3.2679178
       5621.8143       3.2259299
       5622.7902       3.1854674
       5623.7661       3.3160940
       5624.7419       3.2738037
       5625.7178       3.3294021
       5626.6936       3.3894503
       5627.6695       3.3716302
       5628.6453       3.3038961
       5629.6212       3.1628413
       5630.5970       3.2652932
       5631.5729       3.1128616
       5632.5487       3.1291638
       5633.5246       3.5470928
       5634.5004       3.4577696
       5635.4763       3.3464939
       5636.4521       3.3894020
       5637.4280       3.3756183
       5638.4038       3.0642829
       5639.3797       3.3523612
       5640.3555       3.4594005
       5641.3314       3.3473929
       5642.3072       3.4956363
       5643.2831       3.5415155
       5644.2589       3.6060643
       5645.2348       3.1825353
       5646.2106       3.2769253
       5647.1865       3.4368031
       5648.1624       3.4488813
       5649.1382       3.6173142
       5650.1141       3.4948428
       5651.0899       3.4602307
       5652.0658       3.6379781
       5653.0416       3.4773218
       5654.0175       3.8146107
       5654.9933       3.5393699
       5655.9692       3.5865180
       5656.9450       3.6269814
       5657.9209       3.5757886
       5658.8967       3.4834646
       5659.8726       3.7833480
       5660.8484       3.5981499
       5661.8243       3.8218450
       5662.8001       3.7479583
       5663.7760       3.5584869
       5664.7518       3.4832377
       5665.7277       3.6843323
       5666.7035       3.4690353
       5667.6794       3.5812694
       5668.6552       3.4587143
       5669.6311       3.4662174
       5670.6069       3.7088754
       5671.5828       3.5186832
       5672.5587       3.5967127
       5673.5345       3.7756689
       5674.5104       3.7390705
       5675.4862       3.6013993
       5676.4621       3.6218544
       5677.4379       3.4790686
       5678.4138       3.7236948
       5679.3896       3.6308317
       5680.3655       3.4764770
       5681.3413       3.8841793
       5682.3172       3.5857409
       5683.2930       3.5522492
       5684.2689       3.5576781
       5685.2447       3.7911963
       5686.2206       3.8119239
       5687.1964       3.6882826
       5688.1723       3.6508191
       5689.1481       3.8430508
       5690.1240       3.7437287
       5691.0998       3.4764073
       5692.0757       3.2664695
       5693.0515       3.5651732
       5694.0274       3.8859454
       5695.0032       3.6323238
       5695.9791       3.5235009
       5696.9550       3.7994163
       5697.9308       3.7856602
       5698.9067       3.6678914
       5699.8825       3.7234348
       5700.8584       3.9006680
       5701.8342       3.7174205
       5702.8101       3.7315297
       5703.7859       3.7769995
       5704.7618       3.7983798
       5705.7376       3.8160540
       5706.7135       3.7164253
       5707.6893       3.8064328
       5708.6652       3.6563470
       5709.6410       3.8635067
       5710.6169       3.8008543
       5711.5927       3.7901783
       5712.5686       3.7313809
       5713.5444       3.9222867
       5714.5203       3.5124620
       5715.4961       3.8542165
       5716.4720       3.6529149
       5717.4478       3.8972296
       5718.4237       3.9084669
       5719.3995       3.6242108
       5720.3754       3.9047034
       5721.3513       3.6315418
       5722.3271       3.4228316
       5723.3030       3.6964061
       5724.2788       3.9388622
       5725.2547       3.8271474
       5726.2305       3.5595156
       5727.2064       3.5913038
       5728.1822       3.8615548
       5729.1581       3.6673943
       5730.1339       3.8313166
       5731.1098       3.7415487
       5732.0856       3.9202951
       5733.0615       3.7318837
       5734.0373       3.5179384
       5735.0132       3.9641360
       5735.9890       3.6357769
       5736.9649       3.7616058
       5737.9407       3.7830521
       5738.9166       3.7119977
       5739.8924       3.6629272
       5740.8683       3.8479837
       5741.8441       3.7907159
       5742.8200       3.6277385
       5743.7958       3.6957491
       5744.7717       3.7512207
       5745.7476       3.7118920
       5746.7234       3.5782215
       5747.6993       3.7043378
       5748.6751       3.6703696
       5749.6510       3.7928420
       5750.6268       3.6223292
       5751.6027       3.9229595
       5752.5785       3.6109410
       5753.5544       3.6733594
       5754.5302       3.9803315
       5755.5061       3.7174986
       5756.4819       3.7965856
       5757.4578       3.8447378
       5758.4336       3.9069411
       5759.4095       3.6496814
       5760.3853       3.8787751
       5761.3612       3.5601798
       5762.3370       3.5359469
       5763.3129       3.6909270
       5764.2887       3.7749519
       5765.2646       3.5162086
       5766.2404       3.6615071
       5767.2163       3.7664801
       5768.1922       3.5579016
       5769.1680       3.7363797
       5770.1439       3.6944541
       5771.1197       3.8001765
       5772.0956       3.6969422
       5773.0714       3.6663907
       5774.0473       3.6965376
       5775.0231       3.8106468
       5775.9990       3.7349560
       5776.9748       3.6629845
       5777.9507       3.4681900
       5778.9265       3.7959501
       5779.9024       3.8725559
       5780.8782       3.9062298
       5781.8541       3.7802222
       5782.8299       3.8040149
       5783.8058       3.6063466
       5784.7816       3.9911126
       5785.7575       4.0480565
       5786.7333       3.6650006
       5787.7092       3.7418676
       5788.6850       3.7243430
       5789.6609       3.7760209
       5790.6367       3.7193734
       5791.6126       3.7057898
       5792.5885       3.8279540
       5793.5643       4.0154827
       5794.5402       3.7245394
       5795.5160       3.5893962
       5796.4919       3.5899709
       5797.4677       3.8331280
       5798.4436       3.7602747
       5799.4194       3.7906929
       5800.3953       4.0416820
       5801.3711       3.7164022
       5802.3470       3.7096444
       5803.3228       3.8966357
       5804.2987       4.0384314
       5805.2745       3.9895087
       5806.2504       3.8382127
       5807.2262       3.8178623
       5808.2021       3.8657853
       5809.1779       4.0032218
       5810.1538       4.0301644
       5811.1296       3.7876547
       5812.1055       4.0371489
       5813.0813       3.9063749
       5814.0572       4.1049827
       5815.0330       3.8679523
       5816.0089       4.0726819
       5816.9848       4.0984034
       5817.9606       3.9305011
       5818.9365       4.1741826
       5819.9123       4.0498506
       5820.8882       3.9266151
       5821.8640       3.9476386
       5822.8399       3.8542674
       5823.8157       3.7689823
       5824.7916       3.9410578
       5825.7674       3.8501193
       5826.7433       3.8911932
       5827.7191       3.9234110
       5828.6950       3.9210089
       5829.6708       3.9244393
       5830.6467       3.8285988
       5831.6225       3.7268803
       5832.5984       3.7663070
       5833.5742       3.9742652
       5834.5501       3.8931944
       5835.5259       3.9529769
       5836.5018       3.9826921
       5837.4776       3.9737626
       5838.4535       3.7335119
       5839.4293       3.8320435
       5840.4052       3.8792237
       5841.3811       3.7315460
       5842.3569       3.7842448
       5843.3328       3.5552783
       5844.3086       3.6456103
       5845.2845       3.9807459
       5846.2603       3.7688397
       5847.2362       3.7313146
       5848.2120       3.7898529
       5849.1879       3.7714652
       5850.1637       3.7903315
       5851.1396       4.0155072
       5852.1154       3.9356437
       5853.0913       3.9373630
       5854.0671       3.8833190
       5855.0430       3.6196707
       5856.0188       3.5101516
       5856.9947       3.6656894
       5857.9705       3.9934824
       5858.9464       3.9114202
       5859.9222       3.9086409
       5860.8981       4.1410471
       5861.8739       4.3808682
       5862.8498       4.3281472
       5863.8256       4.4744486
       5864.8015       4.6506625
       5865.7774       4.5613365
       5866.7532       4.3609173
       5867.7291       4.1190054
       5868.7049       3.9106496
       5869.6808       3.6393881
       5870.6566       3.5239261
       5871.6325       3.5087696
       5872.6083       3.5394983
       5873.5842       3.7458868
       5874.5600       3.5926992
       5875.5359       3.3883122
       5876.5117       3.0762672
       5877.4876       3.0043833
       5878.4634       3.2675369
       5879.4393       3.2292820
       5880.4151       3.0006721
       5881.3910       3.2894684
       5882.3668       3.3099735
       5883.3427       3.3952275
       5884.3185       3.2537268
       5885.2944       3.4405689
       5886.2702       3.1249296
       5887.2461       3.5704230
       5888.2219       3.5559594
       5889.1978       3.6054628
       5890.1737       3.5265313
       5891.1495       3.6911999
       5892.1254       3.4171375
       5893.1012       3.5247443
       5894.0771       3.6712245
       5895.0529       3.4752689
       5896.0288       3.3652546
       5897.0046       3.6170010
       5897.9805       3.5156707
       5898.9563       3.5070382
       5899.9322       3.6368637
       5900.9080       3.6057190
       5901.8839       3.5946452
       5902.8597       3.6787146
       5903.8356       3.8468682
       5904.8114       3.7026536
       5905.7873       3.8540204
       5906.7631       3.6008136
       5907.7390       3.8122282
       5908.7148       3.7102875
       5909.6907       3.7771875
       5910.6665       3.6930283
       5911.6424       3.5573671
       5912.6182       3.7310051
       5913.5941       3.4435041
       5914.5700       3.6527898
       5915.5458       3.6940764
       5916.5217       3.4049825
       5917.4975       3.5108216
       5918.4734       3.3532469
       5919.4492       3.4180553
       5920.4251       3.5401255
       5921.4009       3.1460692
       5922.3768       3.4192856
       5923.3526       3.6833921
       5924.3285       3.5895675
       5925.3043       3.0230498
       5926.2802       3.8508675
       5927.2560       3.5056740
       5928.2319       3.7781189
       5929.2077       3.2616826
       5930.1836       3.1299175
       5931.1594       3.3969636
       5932.1353       3.4458014
       5933.1111       3.5043619
       5934.0870       3.7505655
       5935.0628       3.7978366
       5936.0387       3.5381673
       5937.0145       3.5296145
       5937.9904       3.7881648
       5938.9663       3.5591914
       5939.9421       3.5493932
       5940.9180       3.7721298
       5941.8938       3.6707841
       5942.8697       3.8457240
       5943.8455       3.6491676
       5944.8214       3.5331441
       5945.7972       3.4353255
       5946.7731       3.5715863
       5947.7489       3.6826191
       5948.7248       3.5904344
       5949.7006       3.9183610
       5950.6765       3.9664364
       5951.6523       3.7045977
       5952.6282       3.5245054
       5953.6040       3.6567466
       5954.5799       3.4977446
       5955.5557       4.1449756
       5956.5316       3.6943286
       5957.5074       3.7630321
       5958.4833       3.6610418
       5959.4591       3.6930106
       5960.4350       3.7294756
       5961.4108       3.9629415
       5962.3867       4.0105404
       5963.3626       3.7779384
       5964.3384       3.9976243
       5965.3143       4.0694825
       5966.2901       3.7735347
       5967.2660       3.6952335
       5968.2418       3.9691799
       5969.2177       3.5987122
       5970.1935       3.8675559
       5971.1694       3.6262488
       5972.1452       3.4186907
       5973.1211       3.6542917
       5974.0969       3.6015090
       5975.0728       3.5897228
       5976.0486       3.5985535
       5977.0245       3.2970303
       5978.0003       3.7045776
       5978.9762       3.6853342
       5979.9520       3.8585277
       5980.9279       3.6854199
       5981.9037       3.7023153
       5982.8796       3.4587333
       5983.8554       3.5694038
       5984.8313       3.5887265
       5985.8071       3.3859598
       5986.7830       3.6969953
       5987.7589       4.1533912
       5988.7347       4.3869083
       5989.7106       4.2356116
       5990.6864       4.0783203
       5991.6623       4.0183684
       5992.6381       3.8837689
       5993.6140       3.8675996
       5994.5898       3.5131025
       5995.5657       3.6836873
       5996.5415       3.5058586
       5997.5174       3.7727944
       5998.4932       3.8015836
       5999.4691       4.1436250
       6000.4449       3.9102538
       6001.4208       3.9790201
       6002.3966       3.6812710
       6003.3725       3.6157453
       6004.3483       3.1466666
       6005.3242       3.9179745
       6006.3000       3.9318765
       6007.2759       2.9907224
       6008.2517       3.6593209
       6009.2276       4.1967845
       6010.2034       4.2345988
       6011.1793       4.0056070
       6012.1552       4.1042870
       6013.1310       4.0101172
       6014.1069       4.0242910
       6015.0827       3.7518311
       6016.0586       3.6400526
       6017.0344       3.9152954
       6018.0103       4.0099981
       6018.9861       3.9754901
       6019.9620       3.8416791
       6020.9378       3.7798255
       6021.9137       3.8009761
       6022.8895       3.5835153
       6023.8654       4.0067312
       6024.8412       4.1717828
       6025.8171       3.7129049
       6026.7929       3.8486167
       6027.7688       3.5372465
       6028.7446       3.6667363
       6029.7205       4.0788061
       6030.6963       3.9624088
       6031.6722       3.5188820
       6032.6480       4.1399024
       6033.6239       4.1525678
       6034.5997       4.4196191
       6035.5756       4.0738135
       6036.5515       4.0617312
       6037.5273       4.0172901
       6038.5032       3.7442946
       6039.4790       3.7425639
       6040.4549       4.1606638
       6041.4307       3.8749059
       6042.4066       3.9610061
       6043.3824       3.7232191
       6044.3583       3.6443917
       6045.3341       3.8007442
       6046.3100       4.0117465
       6047.2858       3.8709132
       6048.2617       3.9556658
       6049.2375       4.0484670
       6050.2134       3.8655177
       6051.1892       3.7823781
       6052.1651       3.7011214
       6053.1409       3.6392883
       6054.1168       4.3001122
       6055.0926       4.0803530
       6056.0685       3.6504617
       6057.0443       3.7312443
       6058.0202       3.4130944
       6058.9960       4.0459424
       6059.9719       3.8183059
       6060.9478       3.5966618
       6061.9236       3.7968739
       6062.8995       3.7762151
       6063.8753       3.6767149
       6064.8512       3.7160141
       6065.8270       3.8019408
       6066.8029       4.0509373
       6067.7787       3.9690358
       6068.7546       3.8123702
       6069.7304       3.9098005
       6070.7063       3.5589589
       6071.6821       3.7925700
       6072.6580       3.6540944
       6073.6338       4.0462038
       6074.6097       3.9298349
       6075.5855       3.9739753
       6076.5614       3.8150926
       6077.5372       4.0640783
       6078.5131       3.9743880
       6079.4889       3.9993574
       6080.4648       3.5615219
       6081.4406       3.9194342
       6082.4165       4.0116764
       6083.3923       4.0835984
       6084.3682       4.0911951
       6085.3441       3.8563800
       6086.3199       3.5257025
       6087.2958       4.0082250
       6088.2716       3.9651093
       6089.2475       3.6204516
       6090.2233       4.0125655
       6091.1992       4.2154240
       6092.1750       4.1440867
       6093.1509       3.8632302
       6094.1267       3.9659771
       6095.1026       3.8569656
       6096.0784       3.8107890
       6097.0543       4.0746840
       6098.0301       3.8690048
       6099.0060       3.9814947
       6099.9818       3.9784531
       6100.9577       3.9920981
       6101.9335       3.9796769
       6102.9094       3.7367572
       6103.8852       3.9084569
       6104.8611       3.7178958
       6105.8369       3.6005081
       6106.8128       3.5998137
       6107.7887       3.9067784
       6108.7645       3.6576058
       6109.7404       3.8742609
       6110.7162       3.6008171
       6111.6921       3.7905657
       6112.6679       3.7355847
       6113.6438       3.9325425
       6114.6196       4.0141999
       6115.5955       3.7132962
       6116.5713       3.5953210
       6117.5472       3.8349435
       6118.5230       4.0048911
       6119.4989       4.0249472
       6120.4747       3.8439448
       6121.4506       3.7633547
       6122.4264       3.8160652
       6123.4023       3.8756809
       6124.3781       3.9312222
       6125.3540       3.9215226
       6126.3298       3.5066381
       6127.3057       4.0302826
       6128.2815       3.9646289
       6129.2574       3.8334092
       6130.2332       3.9760599
       6131.2091       3.8824561
       6132.1850       3.8127048
       6133.1608       3.8220302
       6134.1367       4.0224021
       6135.1125       3.9074315
       6136.0884       3.9457331
       6137.0642       4.1735754
       6138.0401       4.1121834
       6139.0159       4.3174709
       6139.9918       4.0973792
       6140.9676       4.0087955
       6141.9435       4.3077504
       6142.9193       4.2721988
       6143.8952       4.0915252
       6144.8710       3.9785421
       6145.8469       4.0683571
       6146.8227       4.1489401
       6147.7986       3.8394379
       6148.7744       3.8505231
       6149.7503       3.5301225
       6150.7261       3.7262692
       6151.7020       3.9106731
       6152.6778       4.0643570
       6153.6537       4.0758507
       6154.6295       4.1733694
       6155.6054       4.0634384
       6156.5813       3.8689174
       6157.5571       3.6487078
       6158.5330       3.8119694
       6159.5088       3.4584268
       6160.4847       3.4830800
       6161.4605       3.5099303
       6162.4364       4.0643844
       6163.4122       4.0131415
       6164.3881       3.9676674
       6165.3639       3.9444009
       6166.3398       4.0399242
       6167.3156       3.9447830
       6168.2915       4.1553752
       6169.2673       3.9216191
       6170.2432       3.8058951
       6171.2190       4.0559559
       6172.1949       3.8917818
       6173.1707       4.1104826
       6174.1466       4.0003233
       6175.1224       4.2790621
       6176.0983       4.1879310
       6177.0741       3.8381312
       6178.0500       3.8652481
       6179.0258       3.8711124
       6180.0017       3.9900899
       6180.9776       3.6891728
       6181.9534       3.8464422
       6182.9293       4.0094952
       6183.9051       3.9373580
       6184.8810       3.9126564
       6185.8568       3.9108618
       6186.8327       3.7892568
       6187.8085       3.7905551
       6188.7844       4.1431992
       6189.7602       4.2211808
       6190.7361       4.1350534
       6191.7119       4.3686214
       6192.6878       4.1896997
       6193.6636       3.9350056
       6194.6395       3.9904140
       6195.6153       3.7778229
       6196.5912       3.8412432
       6197.5670       3.8974364
       6198.5429       3.9488250
       6199.5187       4.0173807
       6200.4946       3.8038539
       6201.4704       3.8285192
       6202.4463       3.8976468
       6203.4221       4.1071029
       6204.3980       3.8333337
       6205.3739       3.6937927
       6206.3497       3.9203709
       6207.3256       3.7291380
       6208.3014       3.4706908
       6209.2773       3.5519049
       6210.2531       3.9850202
       6211.2290       4.0075980
       6212.2048       4.0145787
       6213.1807       3.8704252
       6214.1565       3.7483959
       6215.1324       3.3438657
       6216.1082       3.3736788
       6217.0841       2.7840089
       6218.0599       2.6348605
       6219.0358       2.3227710
       6220.0116       2.2600970
       6220.9875       1.8633511
       6221.9633       1.6328876
       6222.9392             NaN
       6223.9150             NaN
       6224.8909             NaN
       6225.8667             NaN
       6226.8426             NaN
       6227.8184             NaN
       6228.7943             NaN
       6229.7702             NaN
       6230.7460             NaN
       6231.7219             NaN
       6232.6977             NaN
       6233.6736             NaN
       6234.6494             NaN
       6235.6253             NaN
       6236.6011             NaN
       6237.5770             NaN
       6238.5528             NaN
       6239.5287             NaN
       6240.5045             NaN
       6241.4804             NaN
       6242.4562             NaN
       6243.4321             NaN
       6244.4079             NaN
       6245.3838             NaN
       6246.3596             NaN
       6247.3355             NaN
       6248.3113             NaN
       6249.2872             NaN
       6250.2630             NaN
       6251.2389             NaN
       6252.2147             NaN
       6253.1906             NaN
       6254.1665             NaN
       6255.1423             NaN
       6256.1182             NaN
       6257.0940             NaN
       6258.0699             NaN
       6259.0457             NaN
       6260.0216             NaN
       6260.9974             NaN
       6261.9733             NaN
       6262.9491             NaN
       6263.9250             NaN
       6264.9008             NaN
       6265.8767             NaN
       6266.8525             NaN
       6267.8284             NaN
       6268.8042             NaN
       6269.7801             NaN
       6270.7559             NaN
       6271.7318             NaN
       6272.7076             NaN
       6273.6835             NaN
       6274.6593             NaN
       6275.6352             NaN
       6276.6110             NaN
       6277.5869             NaN
       6278.5628             NaN
       6279.5386             NaN
       6280.5145             NaN
       6281.4903             NaN
       6282.4662             NaN
       6283.4420             NaN
       6284.4179             NaN
       6285.3937             NaN
       6286.3696             NaN
       6287.3454             NaN
       6288.3213             NaN
       6289.2971             NaN
       6290.2730             NaN
       6291.2488             NaN
       6292.2247             NaN
       6293.2005             NaN
       6294.1764             NaN
       6295.1522             NaN
       6296.1281             NaN
       6297.1039             NaN
       6298.0798             NaN
       6299.0556             NaN
       6300.0315             NaN
       6301.0073             NaN
       6301.9832             NaN
       6302.9591             NaN
       6303.9349             NaN
       6304.9108             NaN
       6305.8866             NaN
       6306.8625             NaN
       6307.8383             NaN
       6308.8142             NaN
       6309.7900       4.0998361
       6310.7659       4.0583655
       6311.7417       3.8515614
       6312.7176       3.8245947
       6313.6934       3.9650303
       6314.6693       3.7415717
       6315.6451       3.4680748
       6316.6210       3.5120575
       6317.5968       4.2174015
       6318.5727       4.1139043
       6319.5485       4.9511023
       6320.5244       4.0949403
       6321.5002       4.2570572
       6322.4761       3.6858021
       6323.4519       3.4081175
       6324.4278       3.6911044
       6325.4036       3.9357629
       6326.3795       3.6010304
       6327.3554       3.1972711
       6328.3312       2.8699426
       6329.3071       3.1444851
       6330.2829       3.8658256
       6331.2588       4.1849436
       6332.2346       4.1719130
       6333.2105       3.9133821
       6334.1863       3.8521097
       6335.1622       4.1518807
       6336.1380       3.9288340
       6337.1139       4.0024050
       6338.0897       4.0952301
       6339.0656       3.8220163
       6340.0414       3.9860271
       6341.0173       3.8820787
       6341.9931       3.8074660
       6342.9690       3.5269876
       6343.9448       3.2271427
       6344.9207       3.5667495
       6345.8965       3.7714050
       6346.8724       4.1182080
       6347.8482       3.6825205
       6348.8241       3.7518178
       6349.7999       3.5880948
       6350.7758       3.5823976
       6351.7517       4.0642051
       6352.7275       4.1896613
       6353.7034       3.8148710
       6354.6792       3.7964321
       6355.6551       4.0745358
       6356.6309       4.3063498
       6357.6068       4.3854594
       6358.5826       4.3330007
       6359.5585       4.0706054
       6360.5343       4.1297931
       6361.5102       4.2365360
       6362.4860       4.0388768
       6363.4619       3.9858153
       6364.4377       3.7646690
       6365.4136       3.8219244
       6366.3894       3.8786604
       6367.3653       3.7568346
       6368.3411       3.6492163
       6369.3170       3.8366492
       6370.2928       3.9545017
       6371.2687       3.8920543
       6372.2445       3.4196372
       6373.2204       3.8888590
       6374.1962       3.6389524
       6375.1721       3.8665121
       6376.1480       3.9978412
       6377.1238       3.7196079
       6378.0997       2.9830057
       6379.0755       3.1705860
       6380.0514       3.2743771
       6381.0272       3.1592727
       6382.0031       3.3761222
       6382.9789       3.7375011
       6383.9548       3.7337720
       6384.9306       4.2890542
       6385.9065       3.7370482
       6386.8823       3.8859994
       6387.8582       3.8852273
       6388.8340       3.8364752
       6389.8099       4.0218926
       6390.7857       3.7568322
       6391.7616       3.5735396
       6392.7374       3.6513879
       6393.7133       3.3438437
       6394.6891       3.9633036
       6395.6650       4.1513195
       6396.6408       4.1839769
       6397.6167       3.9989643
       6398.5925       3.9750610
       6399.5684       3.6362734
       6400.5443       3.7791785
       6401.5201       3.4759757
       6402.4960       3.2235445
       6403.4718       3.7009366
       6404.4477       3.6321589
       6405.4235       3.7567467
       6406.3994       4.2846450
       6407.3752       3.7744149
       6408.3511       3.6327498
       6409.3269       3.4397888
       6410.3028       3.4540771
       6411.2786       3.8097590
       6412.2545       3.6001093
       6413.2303       3.7128318
       6414.2062       3.8870355
       6415.1820       3.9539815
       6416.1579       3.6518071
       6417.1337       3.5560361
       6418.1096       3.5667775
       6419.0854       3.6312799
       6420.0613       3.7964643
       6421.0371       3.9988497
       6422.0130       4.1527777
       6422.9889       3.7573943
       6423.9647       4.0355387
       6424.9406       3.6244027
       6425.9164       3.6253082
       6426.8923       3.2500079
       6427.8681       3.3867924
       6428.8440       3.8909994
       6429.8198       4.4606740
       6430.7957       3.3159508
       6431.7715       4.0971382
       6432.7474       4.4159528
       6433.7232       4.7798000
       6434.6991       3.9207523
       6435.6749       4.0607537
       6436.6508       3.8428350
       6437.6266       4.2242016
       6438.6025       4.5692443
       6439.5783       3.8594213
       6440.5542       3.4771606
       6441.5300       3.8433288
       6442.5059       3.6375863
       6443.4817       3.5725143
       6444.4576       4.1837804
       6445.4334       5.5393406
       6446.4093       5.4854358
       6447.3852       5.0860933
       6448.3610       4.4529217
       6449.3369       4.2162907
       6450.3127       3.8757045
       6451.2886       3.3958121
       6452.2644       3.2109618
       6453.2403       3.8229350
       6454.2161       3.9445081
       6455.1920       3.5354934
       6456.1678       3.9718519
       6457.1437       3.7642214
       6458.1195       3.7701040
       6459.0954       3.6106611
       6460.0712       3.6043851
       6461.0471       3.8700844
       6462.0229       3.4597884
       6462.9988       3.4693389
       6463.9746       3.3180286
       6464.9505       3.3705739
       6465.9263       3.6053610
       6466.9022       3.9604501
       6467.8780       3.9097918
       6468.8539       3.8574068
       6469.8297       4.0234040
       6470.8056       3.8291183
       6471.7815       3.7711378
       6472.7573       3.7253795
       6473.7332       3.7207185
       6474.7090       3.8328291
       6475.6849       4.2253048
       6476.6607       3.6868849
       6477.6366       3.3378421
       6478.6124       3.8780183
       6479.5883       4.0147813
       6480.5641       4.4333069
       6481.5400       4.1644635
       6482.5158       4.4925053
       6483.4917       4.1554468
       6484.4675       3.4752622
       6485.4434       3.5995359
       6486.4192       3.1113098
       6487.3951       4.0169488
       6488.3709       3.6572508
       6489.3468       3.8560875
       6490.3226       4.0138997
       6491.2985       3.4574634
       6492.2743       3.5172144
       6493.2502       3.6530101
       6494.2260       3.1284779
       6495.2019       3.5084506
       6496.1778       3.5269525
       6497.1536       4.3321140
       6498.1295       3.6576348
       6499.1053       3.7848561
       6500.0812       3.7610770
       6501.0570       3.5584864
       6502.0329       3.6405974
       6503.0087       3.7230089
       6503.9846       3.7046376
       6504.9604       3.4791945
       6505.9363       3.4527998
       6506.9121       3.4804443
       6507.8880       3.4651035
       6508.8638       3.5044206
       6509.8397       3.6993898
       6510.8155       3.7057027
       6511.7914       3.7604593
       6512.7672       3.7035525
       6513.7431       3.8344694
       6514.7189       3.8855742
       6515.6948       3.7493028
       6516.6706       3.8368352
       6517.6465       3.3965212
       6518.6223       3.2695458
       6519.5982       3.3601405
       6520.5741       3.3959690
       6521.5499       3.0085164
       6522.5258       3.3505376
       6523.5016       3.2727433
       6524.4775       4.6095214
       6525.4533       4.0354043
       6526.4292       4.4241086
       6527.4050       4.1127667
       6528.3809       4.3341512
       6529.3567       3.8450111
       6530.3326       3.5098113
       6531.3084       3.5553003
       6532.2843       3.7447707
       6533.2601       3.9290307
       6534.2360       3.6733381
       6535.2118       4.2760210
       6536.1877       4.6629185
       6537.1635       3.6707054
       6538.1394       4.7782141
       6539.1152       5.5314701
       6540.0911       6.3084821
       6541.0669       6.7175628
       6542.0428       7.3588824
       6543.0186       7.2069411
       6543.9945       7.5783740
       6544.9704       7.2466328
       6545.9462       6.6662168
       6546.9221       5.7596670
       6547.8979       5.0548502
       6548.8738       4.6757944
       6549.8496       5.4268163
       6550.8255       5.3313537
       6551.8013       7.3533558
       6552.7772       10.277547
       6553.7530       16.216065
       6554.7289       24.424916
       6555.7047       33.230092
       6556.6806       41.149158
       6557.6564       46.193128
       6558.6323       46.785402
       6559.6081       38.890745
       6560.5840       27.884969
       6561.5598       18.645801
       6562.5357       11.717166
       6563.5115       6.8888384
       6564.4874       4.9078413
       6565.4632       4.1555891
       6566.4391       3.8267661
       6567.4149       3.6443562
       6568.3908       3.3491184
       6569.3667       3.6143820
       6570.3425       3.6260878
       6571.3184       3.6857438
       6572.2942       4.1576092
       6573.2701       5.8998527
       6574.2459       7.6962497
       6575.2218       10.987841
       6576.1976       13.715728
       6577.1735       15.688688
       6578.1493       17.000781
       6579.1252       16.778213
       6580.1010       14.854581
       6581.0769       11.609151
       6582.0527       8.5479657
       6583.0286       6.5538572
       6584.0044       5.4402450
       6584.9803       4.2909960
       6585.9561       3.8054072
       6586.9320       3.8758934
       6587.9078       3.6704731
       6588.8837       3.6347060
       6589.8595       3.6880903
       6590.8354       3.8126540
       6591.8112       3.7434027
       6592.7871       3.9122960
       6593.7630       3.7155440
       6594.7388       3.8865505
       6595.7147       4.0651530
       6596.6905       3.7469743
       6597.6664       3.8513116
       6598.6422       3.7501380
       6599.6181       4.0308284
       6600.5939       3.5774606
       6601.5698       3.7908339
       6602.5456       3.8936608
       6603.5215       3.6619221
       6604.4973       3.9086474
       6605.4732       4.2494363
       6606.4490       4.1014444
       6607.4249       3.7856097
       6608.4007       3.8380976
       6609.3766       3.8171847
       6610.3524       3.7200945
       6611.3283       3.8189226
       6612.3041       3.7577386
       6613.2800       3.7194766
       6614.2558       3.8689613
       6615.2317       3.6455421
       6616.2075       3.7052772
       6617.1834       3.9348881
       6618.1593       3.7171347
       6619.1351       3.6536090
       6620.1110       3.7082936
       6621.0868       3.7195763
       6622.0627       3.7850482
       6623.0385       3.7389757
       6624.0144       3.6816633
       6624.9902       3.8524837
       6625.9661       3.5634478
       6626.9419       3.8584353
       6627.9178       3.8824726
       6628.8936       3.7110765
       6629.8695       3.7326940
       6630.8453       3.6357177
       6631.8212       3.7068555
       6632.7970       3.8099802
       6633.7729       3.6819361
       6634.7487       4.1571445
       6635.7246       3.7848485
       6636.7004       3.9018344
       6637.6763       4.0974296
       6638.6521       3.8643820
       6639.6280       3.8823766
       6640.6038       3.7459610
       6641.5797       3.6811355
       6642.5556       3.7056164
       6643.5314       3.8364429
       6644.5073       3.7626895
       6645.4831       4.0058887
       6646.4590       3.9295022
       6647.4348       3.8268463
       6648.4107       3.7183555
       6649.3865       3.8574808
       6650.3624       3.8459340
       6651.3382       3.7916448
       6652.3141       3.4664383
       6653.2899       3.8931812
       6654.2658       3.6656835
       6655.2416       3.9359623
       6656.2175       3.6937877
       6657.1933       3.6881654
       6658.1692       3.4906014
       6659.1450       3.2873756
       6660.1209       3.5596002
       6661.0967       3.7010351
       6662.0726       3.7870313
       6663.0484       3.6622036
       6664.0243       3.4434172
       6665.0001       3.6975667
       6665.9760       3.8211509
       6666.9519       3.9046066
       6667.9277       3.7399330
       6668.9036       3.7851394
       6669.8794       4.0351672
       6670.8553       3.6694586
       6671.8311       3.9145905
       6672.8070       3.9073055
       6673.7828       4.0266184
       6674.7587       3.7990768
       6675.7345       4.0092394
       6676.7104       3.6789943
       6677.6862       3.9633512
       6678.6621       3.6128182
       6679.6379       3.3192261
       6680.6138       3.4733750
       6681.5896       3.4397051
       6682.5655       3.6588107
       6683.5413       3.4568100
       6684.5172       3.5842715
       6685.4930       3.6716191
       6686.4689       3.5461747
       6687.4447       3.6158897
       6688.4206       3.5140809
       6689.3964       3.7019079
       6690.3723       3.6166582
       6691.3482       3.4779829
       6692.3240       3.5484099
       6693.2999       3.7258234
       6694.2757       3.4423850
       6695.2516       3.6152992
       6696.2274       3.4863914
       6697.2033       3.5216596
       6698.1791       3.5005352
       6699.1550       3.8553085
       6700.1308       3.6833817
       6701.1067       3.6580042
       6702.0825       3.7202451
       6703.0584       3.8188217
       6704.0342       3.7152299
       6705.0101       3.9727257
       6705.9859       4.6950474
       6706.9618       5.7021802
       6707.9376       7.1835300
       6708.9135       8.4038513
       6709.8893       10.059780
       6710.8652       10.444757
       6711.8410       10.755828
       6712.8169       9.9841978
       6713.7927       8.4810631
       6714.7686       6.7316321
       6715.7445       5.1428227
       6716.7203       4.5073924
       6717.6962       4.0494558
       6718.6720       4.2372524
       6719.6479       4.3374654
       6720.6237       4.8131332
       6721.5996       5.6364909
       6722.5754       6.6361430
       6723.5513       7.7471693
       6724.5271       8.4897067
       6725.5030       8.8542760
       6726.4788       8.8076783
       6727.4547       8.0132145
       6728.4305       6.8297442
       6729.4064       5.9277387
       6730.3822       4.8079196
       6731.3581       4.4465881
       6732.3339       4.0706804
       6733.3098       3.6799945
       6734.2856       3.6292428
       6735.2615       3.5951430
       6736.2373       3.1559215
       6737.2132       3.3228929
       6738.1890       3.2694482
       6739.1649       3.2845553
       6740.1408       3.2026189
       6741.1166       3.3074820
       6742.0925       3.3413980
       6743.0683       3.5554613
       6744.0442       3.5059128
       6745.0200       3.4723120
       6745.9959       3.6955278
       6746.9717       3.6951099
       6747.9476       3.7909337
       6748.9234       3.7670949
       6749.8993       3.7094875
       6750.8751       3.6152660
       6751.8510       3.4747849
       6752.8268       3.5555680
       6753.8027       3.7698803
       6754.7785       3.7646787
       6755.7544       3.9164450
       6756.7302       3.6626422
       6757.7061       3.7626278
       6758.6819       3.5349143
       6759.6578       3.6430591
       6760.6336       3.3820233
       6761.6095       3.6367340
       6762.5854       3.5601567
       6763.5612       3.3033658
       6764.5371       3.5087303
       6765.5129       3.5419115
       6766.4888       3.5235961
       6767.4646       3.6883649
       6768.4405       3.4515266
       6769.4163       3.7541944
       6770.3922       3.9819619
       6771.3680       3.9099005
       6772.3439       3.6618217
       6773.3197       3.6514003
       6774.2956       3.5690335
       6775.2714       3.3389738
       6776.2473       3.6494145
       6777.2231       3.2284300
       6778.1990       3.4933751
       6779.1748       3.5886478
       6780.1507       3.7675158
       6781.1265       3.4741101
       6782.1024       3.4423662
       6783.0782       3.9155093
       6784.0541       3.5238846
       6785.0299       3.1408141
       6786.0058       3.0730302
       6786.9817       2.6315729
       6787.9575       3.9979994
       6788.9334       3.4577681
       6789.9092       4.2203878
       6790.8851       3.6849245
       6791.8609       3.8842517
       6792.8368       3.6748124
       6793.8126       3.1116080
       6794.7885       2.5858350
       6795.7643       3.7986363
       6796.7402       3.6868119
       6797.7160       3.8681866
       6798.6919       5.3854048
       6799.6677       5.5970749
       6800.6436       4.6294173
       6801.6194       4.0144880
       6802.5953       3.6284904
       6803.5711       3.1224426
       6804.5470       3.5658110
       6805.5228       3.3992957
       6806.4987       3.7533451
       6807.4745       3.5850206
       6808.4504       3.6377315
       6809.4262       3.5886008
       6810.4021       3.5952676
       6811.3780       3.6247447
       6812.3538       3.6652902
       6813.3297       3.6732701
       6814.3055       3.4624660
       6815.2814       3.5809243
       6816.2572       3.9015436
       6817.2331       3.6167150
       6818.2089       3.7329176
       6819.1848       3.8437864
       6820.1606       3.5883678
       6821.1365       3.7111658
       6822.1123       3.6321153
       6823.0882       3.5631287
       6824.0640       3.5196213
       6825.0399       3.7243177
       6826.0157       3.9155254
       6826.9916       3.8427201
       6827.9674       3.8182353
       6828.9433       2.9512465
       6829.9191       3.0932206
       6830.8950       3.0022410
       6831.8708       3.1376620
       6832.8467       2.7107158
       6833.8225       4.2177462
       6834.7984       4.4424893
       6835.7743       3.8255388
       6836.7501       4.1138757
       6837.7260       4.3459621
       6838.7018       4.4068890
       6839.6777       3.6066323
       6840.6535       3.5307947
       6841.6294       4.1686516
       6842.6052       4.0467420
       6843.5811       4.5192041
       6844.5569       3.8937634
       6845.5328       3.6824870
       6846.5086       3.7517178
       6847.4845       3.7526247
       6848.4603       3.7843266
       6849.4362       3.6825584
       6850.4120       3.3600648
       6851.3879       4.0644875
       6852.3637       3.9628266
       6853.3396       3.9126016
       6854.3154       3.8572437
       6855.2913       3.7246554
       6856.2671       3.7470260
       6857.2430       3.7929848
       6858.2188       3.8451141
       6859.1947       3.9200422
       6860.1706       3.8628739
       6861.1464       3.7218607
       6862.1223       3.3156726
       6863.0981       3.7328155
       6864.0740       3.3950600
       6865.0498       3.7738014
       6866.0257       3.8132565
       6867.0015       4.1459392
       6867.9774       3.5983203
       6868.9532       3.8006699
       6869.9291       3.9289483
       6870.9049       3.8253059
       6871.8808       3.7706261
       6872.8566       3.6590535
       6873.8325       3.3328188
       6874.8083       2.5045390
       6875.7842       3.0218739
       6876.7600       3.0649475
       6877.7359       2.4838500
       6878.7117       3.5614742
       6879.6876       4.1442987
       6880.6634       4.3490366
       6881.6393       4.2984768
       6882.6151       4.0497350
       6883.5910       4.1759170
       6884.5669       4.0083512
       6885.5427       3.9160980
       6886.5186       3.7172425
       6887.4944       3.3465650
       6888.4703       3.2178897
       6889.4461       3.4597168
       6890.4220       3.3313484
       6891.3978       3.9773538
       6892.3737       4.1205850
       6893.3495       4.3189473
       6894.3254       4.1210757
       6895.3012       4.0136553
       6896.2771       3.9514739
       6897.2529       4.2054026
       6898.2288       3.9365987
       6899.2046       3.5237259
       6900.1805       3.0346609
       6901.1563       3.2493776
       6902.1322       2.9171651
       6903.1080       2.7946126
       6904.0839       4.1064186
       6905.0597       3.7695099
       6906.0356       4.0998388
       6907.0114       4.1649373
       6907.9873       4.1813558
       6908.9632       4.1818647
       6909.9390       3.8945483
       6910.9149       3.7082488
       6911.8907       3.9883034
       6912.8666       4.0064859
       6913.8424       3.8216756
       6914.8183       3.9432210
       6915.7941       3.7263800
       6916.7700       3.6401072
       6917.7458       3.7630986
       6918.7217       3.8664789
       6919.6975       3.4931158
       6920.6734       3.0651042
       6921.6492       3.6917914
       6922.6251       3.9360641
       6923.6009       4.1089527
       6924.5768       3.9567690
       6925.5526       3.6495668
       6926.5285       3.8825117
       6927.5043       3.1999932
       6928.4802       3.2139878
       6929.4560       3.3137630
       6930.4319       3.6691245
       6931.4077       3.5258037
       6932.3836       3.5671638
       6933.3595       5.0257911
       6934.3353       4.5773238
       6935.3112       4.1873578
       6936.2870       3.9459044
       6937.2629       3.5645656
       6938.2387       3.7731874
       6939.2146       3.8962244
       6940.1904       3.8586719
       6941.1663       3.7673594
       6942.1421       3.8599675
       6943.1180       3.8341706
       6944.0938       3.7792916
       6945.0697       3.8673539
       6946.0455       3.6314740
       6947.0214       3.6758251
       6947.9972       3.9489662
       6948.9731       3.7794386
       6949.9489       3.8116240
       6950.9248       3.6656992
       6951.9006       3.6566729
       6952.8765       4.0478085
       6953.8523       4.1516899
       6954.8282       3.6602602
       6955.8040       4.1902257
       6956.7799       4.0700340
       6957.7558       4.0207568
       6958.7316       3.7743752
       6959.7075       3.7850416
       6960.6833       3.5747244
       6961.6592       3.5438386
       6962.6350       3.4036671
       6963.6109       3.8775496
       6964.5867       4.1979615
       6965.5626       4.3757792
       6966.5384       3.7818326
       6967.5143       3.7687335
       6968.4901       3.9796496
       6969.4660       4.0025081
       6970.4418       3.9034945
       6971.4177       3.7680851
       6972.3935       3.6553371
       6973.3694       3.8417191
       6974.3452       3.7445437
       6975.3211       3.8164455
       6976.2969       3.8946612
       6977.2728       3.9029216
       6978.2486       4.0236729
       6979.2245       3.9911993
       6980.2003       4.0451375
       6981.1762       4.0503130
       6982.1521       3.8996376
       6983.1279       4.2374474
       6984.1038       3.8996750
       6985.0796       3.9922580
       6986.0555       3.7951711
       6987.0313       3.8901607
       6988.0072       3.6800145
       6988.9830       3.5153596
       6989.9589       3.7436256
       6990.9347       3.7463610
       6991.9106       3.7084465
       6992.8864       3.9062893
       6993.8623       4.1361838
       6994.8381       4.3390047
       6995.8140       4.1768281
       6996.7898       3.9861005
       6997.7657       3.7853975
       6998.7415       3.7987414
       6999.7174       3.8150538
       7000.6932       3.5710254
       7001.6691       3.8912769
       7002.6449       4.0096080
       7003.6208       3.8186245
       7004.5966       4.0034317
       7005.5725       3.7803274
       7006.5484       3.8007802
       7007.5242       4.0155639
       7008.5001       3.9458178
       7009.4759       3.7179662
       7010.4518       3.7350541
       7011.4276       4.0288590
       7012.4035       3.6708910
       7013.3793       3.7421466
       7014.3552       3.8874792
       7015.3310       3.8817244
       7016.3069       3.9663913
       7017.2827       4.0177051
       7018.2586       3.9758351
       7019.2344       3.9026812
       7020.2103       3.6197704
       7021.1861       3.7769726
       7022.1620       3.8299666
       7023.1378       3.6988368
       7024.1137       3.7028731
       7025.0895       3.5594687
       7026.0654       3.8568972
       7027.0412       3.7269767
       7028.0171       3.7370715
       7028.9929       3.8515937
       7029.9688       3.8049320
       7030.9447       3.9648293
       7031.9205       3.8895906
       7032.8964       3.8496118
       7033.8722       3.8425868
       7034.8481       3.8169179
       7035.8239       4.0085367
       7036.7998       3.9370516
       7037.7756       4.0847495
       7038.7515       4.1742251
       7039.7273       3.8099401
       7040.7032       3.9160536
       7041.6790       4.1168942
       7042.6549       4.0384930
       7043.6307       3.9710430
       7044.6066       3.8976505
       7045.5824       3.7931041
       7046.5583       4.0806366
       7047.5341       3.8460032
       7048.5100       3.7689981
       7049.4858       3.8985284
       7050.4617       3.8097966
       7051.4375       3.5545485
       7052.4134       3.9212054
       7053.3892       3.9328056
       7054.3651       3.9320582
       7055.3410       3.8472981
       7056.3168       3.6598462
       7057.2927       3.6783517
       7058.2685       4.1289100
       7059.2444       3.6837477
       7060.2202       4.0127723
       7061.1961       3.5454562
       7062.1719       3.6740129
       7063.1478       4.0279858
       7064.1236       3.3046331
       7065.0995       3.5280284
       7066.0753       3.5900203
       7067.0512       3.8205834
       7068.0270       3.2963940
       7069.0029       3.7304139
       7069.9787       3.7598522
       7070.9546       3.9479940
       7071.9304       3.7964509
       7072.9063       4.0325560
       7073.8821       3.9083029
       7074.8580       3.7656349
       7075.8338       3.7752168
       7076.8097       3.8755972
       7077.7856       3.7948636
       7078.7614       3.7621214
       7079.7373       3.5403014
       7080.7131       3.3128588
       7081.6890       3.6407989
       7082.6648       3.5658609
       7083.6407       3.5023943
       7084.6165       3.4845430
       7085.5924       3.6055437
       7086.5682       3.5849358
       7087.5441       3.6001150
       7088.5199       3.5162079
       7089.4958       3.3383351
       7090.4716       3.8748085
       7091.4475       3.9285669
       7092.4233       3.6079431
       7093.3992       4.0403290
       7094.3750       3.7970023
       7095.3509       3.7985936
       7096.3267       3.9064091
       7097.3026       3.8915503
       7098.2784       3.8754511
       7099.2543       3.6794350
       7100.2301       3.7260517
       7101.2060       3.4450876
       7102.1819       3.7753455
       7103.1577       3.6233463
       7104.1336       3.8936505
       7105.1094       3.9586405
       7106.0853       3.9450458
       7107.0611       4.0023570
       7108.0370       3.9295680
       7109.0128       3.6899190
       7109.9887       4.0616886
       7110.9645       3.8924967
       7111.9404       3.6143315
       7112.9162       3.9772818
       7113.8921       3.6835185
       7114.8679       3.7852857
       7115.8438       3.7400424
       7116.8196       3.6851443
       7117.7955       3.8479494
       7118.7713       3.5090688
       7119.7472       3.9199991
       7120.7230       3.8796907
       7121.6989       3.7450134
       7122.6747       3.5828087
       7123.6506       3.7990989
       7124.6264       3.6864631
       7125.6023       4.1717318
       7126.5782       4.2918370
       7127.5540       4.0295186
       7128.5299       4.2218400
       7129.5057       4.3729115
       7130.4816       4.4525609
       7131.4574       4.1022873
       7132.4333       4.0414447
       7133.4091       3.7705398
       7134.3850       3.7959149
       7135.3608       4.0297427
       7136.3367       3.7609414
       7137.3125       3.6854649
       7138.2884       3.7171854
       7139.2642       3.8913044
       7140.2401       3.9644748
       7141.2159       3.6553096
       7142.1918       3.8585522
       7143.1676       3.7167963
       7144.1435       3.7842298
       7145.1193       3.5839134
       7146.0952       3.6934840
       7147.0710       3.9579845
       7148.0469       3.6906404
       7149.0227       4.1483447
       7149.9986       3.9874598
       7150.9745       3.9556959
       7151.9503       3.9318364
       7152.9262       4.0038303
       7153.9020       3.8713585
       7154.8779       3.7766315
       7155.8537       3.7539240
       7156.8296       3.8472551
       7157.8054       3.8686690
       7158.7813       3.7219956
       7159.7571       3.8964980
       7160.7330       3.9870292
       7161.7088       4.0161854
       7162.6847       4.0336548
       7163.6605       3.7559517
       7164.6364       3.6137446
       7165.6122       3.8385767
       7166.5881       3.7650777
       7167.5639       3.6493381
       7168.5398       3.3480415
       7169.5156       4.2634349
       7170.4915       3.3682700
       7171.4673       3.5759327
       7172.4432       2.7930686
       7173.4190       3.5346525
       7174.3949       3.5268577
       7175.3708       3.9623625
       7176.3466       3.0748852
       7177.3225       3.6255869
       7178.2983       3.0062197
       7179.2742       3.8575839
       7180.2500       4.0901274
       7181.2259       4.1272585
       7182.2017       4.0315667
       7183.1776       3.5251633
       7184.1534       2.7219091
       7185.1293       3.2928037
       7186.1051       3.5911812
       7187.0810       3.5667754
       7188.0568       4.1034096
       7189.0327       4.6817171
       7190.0085       4.5164916
       7190.9844       4.4419812
       7191.9602       3.8703785
       7192.9361       4.1793885
       7193.9119       3.4536605
       7194.8878       3.4736124
       7195.8636       3.5208448
       7196.8395       3.7945269
       7197.8153       4.5308280
       7198.7912       3.8148990
       7199.7671       3.6553494
       7200.7429       3.3631359
       7201.7188       3.7560153
       7202.6946       4.1624517
       7203.6705       4.0627311
       7204.6463       4.1592696
       7205.6222       4.0300055
       7206.5980       3.8961636
       7207.5739       3.9226907
       7208.5497       3.8865146
       7209.5256       3.9042984
       7210.5014       3.8640438
       7211.4773       3.7041296
       7212.4531       4.0009409
       7213.4290       3.9209471
       7214.4048       4.1606488
       7215.3807       3.9754899
       7216.3565       4.0618485
       7217.3324       3.9391025
       7218.3082       3.8658495
       7219.2841       4.0208867
       7220.2599       4.2607795
       7221.2358       3.9224675
       7222.2116       2.8912591
       7223.1875       2.5437508
       7224.1634       3.8036597
       7225.1392       3.5613460
       7226.1151       3.8950612
       7227.0909       3.0359063
       7228.0668       5.6127602
       7229.0426       4.7768795
       7230.0185       4.7329836
       7230.9943       4.4640997
       7231.9702       4.4359610
       7232.9460       3.5344904
       7233.9219       3.6093854
       7234.8977       4.6313906
       7235.8736       5.3691268
       7236.8494       4.4772671
       7237.8253       4.8902560
       7238.8011       4.4311415
       7239.7770       4.2461914
       7240.7528       4.2205411
       7241.7287       3.8955207
       7242.7045       4.0764194
       7243.6804       4.0371992
       7244.6562       4.3647499
       7245.6321       4.5988749
       7246.6079       3.8562680
       7247.5838       4.3097278
       7248.5597       4.3066881
       7249.5355       4.3088201
       7250.5114       4.1094281
       7251.4872       4.0970237
       7252.4631       4.1603456
       7253.4389       4.1570027
       7254.4148       3.7196884
       7255.3906       3.4775328
       7256.3665       3.5802386
       7257.3423       4.0793597
       7258.3182       4.0211930
       7259.2940       4.5037892
       7260.2699       5.2906732
       7261.2457       4.3913172
       7262.2216       4.1615306
       7263.1974       4.2809723
       7264.1733       4.1584727
       7265.1491       4.0500458
       7266.1250       4.1873684
       7267.1008       4.1013731
       7268.0767       4.1063147
       7269.0525       4.2336889
       7270.0284       4.1612085
       7271.0042       3.0661056
       7271.9801       2.3118293
       7272.9560       2.6780322
       7273.9318       4.1824133
       7274.9077       4.7373663
       7275.8835       5.4460193
       7276.8594       5.5902076
       7277.8352       5.3869557
       7278.8111       4.3192979
       7279.7869       4.5404633
       7280.7628       4.2722293
       7281.7386       3.9241329
       7282.7145       3.8648443
       7283.6903       4.2826475
       7284.6662       3.4553721
       7285.6420       3.4058644
       7286.6179       3.1874886
       7287.5937       4.8666361
       7288.5696       4.5316896
       7289.5454       4.5498265
       7290.5213       4.8268852
       7291.4971       5.1942622
       7292.4730       4.4555607
       7293.4488       4.2969267
       7294.4247       4.2232655
       7295.4005       4.0230873
       7296.3764       4.4511864
       7297.3523       4.3831824
       7298.3281       2.7624176
       7299.3040       2.7818792
       7300.2798       3.5481491
       7301.2557       2.9414941
       7302.2315       3.8758002
       7303.2074       5.3331861
       7304.1832       5.8262295
       7305.1591       5.5983054
       7306.1349       4.4804237
       7307.1108       4.5393778
       7308.0866       4.2128282
       7309.0625       4.2895966
       7310.0383       4.2421378
       7311.0142       4.3191447
       7311.9900       4.3609127
       7312.9659       4.2642800
       7313.9417       4.1560224
       7314.9176       4.2400958
       7315.8934       4.3721866
       7316.8693       3.8826664
       7317.8451       3.9828812
       7318.8210       3.5945162
       7319.7968       3.6729457
       7320.7727       3.9566010
       7321.7486       4.8297918
       7322.7244       4.8268800
       7323.7003       4.6704232
       7324.6761       4.9470865
       7325.6520       4.6473550
       7326.6278       4.3550078
       7327.6037       4.9731673
       7328.5795       4.7137612
       7329.5554       3.5849402
       7330.5312       2.8281077
       7331.5071       3.2052901
       7332.4829       4.3731293
       7333.4588       5.8123757
       7334.4346       6.0832182
       7335.4105       7.2901648
       7336.3863       7.3448855
       7337.3622       5.5421040
       7338.3380       4.6068759
       7339.3139       4.3569494
       7340.2897       4.2436894
       7341.2656       4.0867133
       7342.2414       4.1423729
       7343.2173       4.0552684
       7344.1931       3.8265195
       7345.1690       3.9549571
       7346.1449       4.3597180
       7347.1207       4.2747855
       7348.0966       4.2705379
       7349.0724       4.1343022
       7350.0483       3.9852576
       7351.0241       3.9867055
       7352.0000       4.3049514
       7352.9758       4.2326788
       7353.9517       4.0578247
       7354.9275       3.6908349
       7355.9034       3.4047880
       7356.8792       3.5302145
       7357.8551       2.6418907
       7358.8309       3.4542152
       7359.8068       3.6026312
       7360.7826       4.0081506
       7361.7585       3.9535428
       7362.7343       4.5032710
       7363.7102       5.3642188
       7364.6860       4.7582713
       7365.6619       4.5253491
       7366.6377       4.1262154
       7367.6136       3.0169161
       7368.5894       3.7336094
       7369.5653       5.1629519
       7370.5412       5.0971835
       7371.5170       4.4195569
       7372.4929       4.9465231
       7373.4687       4.9304496
       7374.4446       4.4696059
       7375.4204       4.4059049
       7376.3963       4.2836096
       7377.3721       4.1319428
       7378.3480       4.0715136
       7379.3238       3.9411062
       7380.2997       4.0547289
       7381.2755       4.0815840
       7382.2514       3.8832167
       7383.2272       4.0452910
       7384.2031       4.0914239
       7385.1789       4.0224129
       7386.1548       3.9562330
       7387.1306       3.8746912
       7388.1065       3.9400682
       7389.0823       4.4226463
       7390.0582       4.2719249
       7391.0340       4.2250364
       7392.0099       4.3578216
       7392.9858       4.4600001
       7393.9616       4.6105852
       7394.9375       4.4316538
       7395.9133       4.1636613
       7396.8892       3.9761253
       7397.8650       4.6028308
       7398.8409       3.8751345
       7399.8167       4.0053450
       7400.7926       4.3608351
       7401.7684       4.2486735
       7402.7443       4.2295811
       7403.7201       4.0133492
       7404.6960       4.2110465
       7405.6718       3.8732137
       7406.6477       3.9932765
       7407.6235       4.6837029
       7408.5994       4.2088436
       7409.5752       4.5789391
       7410.5511       4.4804436
       7411.5269       4.6563588
       7412.5028       4.5911823
       7413.4786       4.5543698
       7414.4545       4.4890644
       7415.4303       4.3239214
       7416.4062       4.1255151
       7417.3821       4.2018015
       7418.3579       4.3838805
       7419.3338       4.4879117
       7420.3096       4.2027415
       7421.2855       4.5187407
       7422.2613       4.0321673
       7423.2372       4.2356587
       7424.2130       4.4265563
       7425.1889       4.3300161
       7426.1647       4.0994567
       7427.1406       4.3446111
       7428.1164       4.2605823
       7429.0923       4.1339725
       7430.0681       4.0439892
       7431.0440       4.3431165
       7432.0198       4.3239306
       7432.9957       4.4492729
       7433.9715       4.1735336
       7434.9474       4.2495562
       7435.9232       4.0878978
       7436.8991       4.0794832
       7437.8749       4.4871063
       7438.8508       4.1096078
       7439.8266       4.2363294
       7440.8025       4.2870630
       7441.7784       4.1781243
       7442.7542       4.1542791
       7443.7301       4.5677257
       7444.7059       4.4669956
       7445.6818       4.2072126
       7446.6576       4.2532835
       7447.6335       4.4375784
       7448.6093       4.2412002
       7449.5852       3.9045371
       7450.5610       3.7778440
       7451.5369       4.0553971
       7452.5127       4.3793899
       7453.4886       4.2132588
       7454.4644       4.6709630
       7455.4403       4.4239898
       7456.4161       4.4149779
       7457.3920       4.5931621
       7458.3678       4.4590097
       7459.3437       4.6759547
       7460.3195       4.3026877
       7461.2954       4.3596501
       7462.2712       4.0909518
       7463.2471       4.2971537
       7464.2229       4.2800869
       7465.1988       4.0998914
       7466.1747       4.3294068
       7467.1505       4.4320885
       7468.1264       4.5571106
       7469.1022       4.2973843
       7470.0781       4.1512671
       7471.0539       4.3050109
       7472.0298       4.3701294
       7473.0056       4.2878091
       7473.9815       4.0128531
       7474.9573       4.3408752
       7475.9332       4.3000562
       7476.9090       4.2232571
       7477.8849       4.4790176
       7478.8607       4.2316247
       7479.8366       4.3792681
       7480.8124       4.1082765
       7481.7883       4.5110112
       7482.7641       4.3850735
       7483.7400       4.4310262
       7484.7158       4.4835165
       7485.6917       4.3713462
       7486.6675       4.3073730
       7487.6434       4.5588365
       7488.6192       4.3748180
       7489.5951       4.2415867
       7490.5710       4.0297382
       7491.5468       4.1905067
       7492.5227       4.7164293
       7493.4985       4.3484241
       7494.4744       4.4103970
       7495.4502       4.3547597
       7496.4261       4.3526432
       7497.4019       4.4640162
       7498.3778       4.4328713
       7499.3536       4.8814652
       7500.3295       5.0374180
       7501.3053       4.5073945
       7502.2812       4.7528772
       7503.2570       4.5626330
       7504.2329       4.4881974
       7505.2087       4.4879467
       7506.1846       4.4310870
       7507.1604       4.5268772
       7508.1363       4.3990517
       7509.1121       4.1581750
       7510.0880       4.3581598
       7511.0638       4.2968556
       7512.0397       4.1836316
       7513.0155       4.3459106
       7513.9914       4.7934485
       7514.9673       4.3754069
       7515.9431       4.3302023
       7516.9190       4.5578857
       7517.8948       4.3956146
       7518.8707       4.7883688
       7519.8465       4.6039340
       7520.8224       4.7875113
       7521.7982       4.6527868
       7522.7741       4.6208353
       7523.7499       4.7008865
       7524.7258       4.6183915
       7525.7016       4.5165709
       7526.6775       4.5081453
       7527.6533       4.7834637
       7528.6292       4.7963376
       7529.6050       4.6102490
       7530.5809       4.5662806
       7531.5567       4.7250863
       7532.5326       4.9108358
       7533.5084       4.6264625
       7534.4843       4.6160166
       7535.4601       4.6059334
       7536.4360       4.9628706
       7537.4118       4.8602450
       7538.3877       5.0045556
       7539.3636       4.5797833
       7540.3394       4.5790112
       7541.3153       4.3136893
       7542.2911       4.6815483
       7543.2670       4.6300277
       7544.2428       4.6859015
       7545.2187       4.6069553
       7546.1945       4.7192165
       7547.1704       4.8679112
       7548.1462       4.6716580
       7549.1221       4.5270397
       7550.0979       4.8125507
       7551.0738       4.8772523
       7552.0496       4.6574597
       7553.0255       4.9603272
       7554.0013       4.9308940
       7554.9772       4.9092906
       7555.9530       4.8323453
       7556.9289       4.6593590
       7557.9047       4.7033927
       7558.8806       4.6747874
       7559.8564       4.3244203
       7560.8323       4.3804092
       7561.8081       4.9534945
       7562.7840       4.6890422
       7563.7599       4.5125797
       7564.7357       4.7655847
       7565.7116       4.6298024
       7566.6874       4.5028260
       7567.6633       4.6006851
       7568.6391       4.7171117
       7569.6150       4.5740637
       7570.5908       4.6428681
       7571.5667       4.6099832
       7572.5425       4.9975803
       7573.5184       4.7593917
       7574.4942       4.5669986
       7575.4701       4.6151421
       7576.4459       4.2955599
       7577.4218       4.6025661
       7578.3976       4.5654774
       7579.3735       4.5937974
       7580.3493       4.9515269
       7581.3252       4.8396608
       7582.3010       4.6611152
       7583.2769       4.8912081
       7584.2527       4.3771457
       7585.2286       4.6617425
       7586.2044       4.6865128
       7587.1803       4.8722033
       7588.1562       4.6150793
       7589.1320       4.5254615
       7590.1079       4.4682934
       7591.0837       4.7226009
       7592.0596       4.3982105
       7593.0354       4.3374286
       7594.0113       4.4140373
       7594.9871       4.2457253
       7595.9630       4.3087473
       7596.9388       4.3680817
       7597.9147       4.5466394
       7598.8905       4.1437315
       7599.8664       4.0818259
       7600.8422       4.3841924
       7601.8181       4.6479175
       7602.7939       4.4181989
       7603.7698       4.3583914
       7604.7456       4.3820281
       7605.7215       4.3607857
       7606.6973       4.2260778
       7607.6732       4.2874614
       7608.6490       3.9584446
       7609.6249       4.3709013
       7610.6007       4.6292381
       7611.5766       3.9553420
       7612.5525       4.1092641
       7613.5283       3.1315866
       7614.5042       3.4231967
       7615.4800       5.1741206
       7616.4559       3.2626305
       7617.4317       3.6047172
       7618.4076       4.8474606
       7619.3834       5.5833856
       7620.3593       4.5252749
       7621.3351       4.8605369
       7622.3110       5.3595922
       7623.2868       6.3391977
       7624.2627       3.3672737
       7625.2385       3.5555098
       7626.2144       3.7680175
       7627.1902       2.9217194
       7628.1661       3.4283641
       7629.1419       2.7739045
       7630.1178       3.3527594
       7631.0936       5.6330948
       7632.0695       4.5989502
       7633.0453       5.0540857
       7634.0212       4.4440707
       7634.9970       4.0607550
       7635.9729       3.7410678
       7636.9488       3.9758600
       7637.9246       2.8390106
       7638.9005       2.5378719
       7639.8763       3.1765543
       7640.8522       2.4889179
       7641.8280       3.2013520
       7642.8039       2.5931490
       7643.7797       2.5372355
       7644.7556       2.2259627
       7645.7314       2.4832875
       7646.7073       2.7797573
       7647.6831       3.5530560
       7648.6590       3.5125619
       7649.6348       3.1408659
       7650.6107       2.9891316
       7651.5865       3.1801191
       7652.5624       3.3054713
       7653.5382       2.9377062
       7654.5141       2.5945992
       7655.4899       2.6416905
       7656.4658       2.5435242
       7657.4416       2.8803460
       7658.4175       2.8750264
       7659.3933       3.1427461
       7660.3692       3.3673952
       7661.3451       3.6506296
       7662.3209       3.3381881
       7663.2968       2.8442162
       7664.2726       2.9860123
       7665.2485       3.0038037
       7666.2243       2.6755927
       7667.2002       2.0356099
       7668.1760     -0.18894636
       7669.1519      -2.0778928
       7670.1277      -1.3082456
       7671.1036      -1.7305023
       7672.0794       1.6026901
       7673.0553       1.7668706
       7674.0311       4.9446911
       7675.0070       7.2217882
       7675.9828       4.3389436
       7676.9587       3.5791427
       7677.9345       3.4000437
       7678.9104       3.3977863
       7679.8862       3.7190631
       7680.8621       4.0013800
       7681.8379       4.2163472
       7682.8138       3.9232922
       7683.7896       4.0684735
       7684.7655       3.9841361
       7685.7414       4.1037685
       7686.7172       4.2464438
       7687.6931       3.8805816
       7688.6689       3.6658720
       7689.6448       4.2256229
       7690.6206       3.5436647
       7691.5965       3.2837104
       7692.5723       3.3480618
       7693.5482       3.2413964
       7694.5240       4.4213840
       7695.4999       4.0295138
       7696.4757       4.0392665
       7697.4516       3.6998352
       7698.4274       3.2860801
       7699.4033       3.3081658
       7700.3791       3.4511777
       7701.3550       3.4966292
       7702.3308       3.7615681
       7703.3067       3.6639582
       7704.2825       3.5670450
       7705.2584       3.3789189
       7706.2342       3.0419256
       7707.2101       3.3967315
       7708.1859       2.8056842
       7709.1618       4.7863449
       7710.1377       4.7657488
       7711.1135       4.6295699
       7712.0894       3.3241468
       7713.0652       3.3377241
       7714.0411       2.8342998
       7715.0169       2.8294788
       7715.9928       3.3590606
       7716.9686       3.6647785
       7717.9445       4.1747558
       7718.9203       4.2307515
       7719.8962       2.1867127
       7720.8720     -0.45776002
       7721.8479       1.0068108
       7722.8237      -1.1770056
       7723.7996     -0.41018295
       7724.7754       2.8122319
       7725.7513       6.3635012
       7726.7271       5.6824600
       7727.7030       4.4160534
       7728.6788       3.6131189
       7729.6547       3.9949516
       7730.6305       4.2632330
       7731.6064       4.1336460
       7732.5823       3.9148107
       7733.5581       4.1116064
       7734.5340       3.4370157
       7735.5098       2.7239834
       7736.4857       1.7933936
       7737.4615       2.6292923
       7738.4374       4.1215190
       7739.4132       2.7535747
       7740.3891       3.9744947
       7741.3649       4.4682010
       7742.3408       4.6577610
       7743.3166       4.2752069
       7744.2925       4.2650501
       7745.2683       4.1855029
       7746.2442       4.2386463
       7747.2200       3.7868692
       7748.1959       3.7993385
       7749.1717       3.5002835
       7750.1476       3.2115131
       7751.1234      0.24215063
       7752.0993       1.5277459
       7753.0751       1.4680805
       7754.0510       2.3522941
       7755.0268       3.0933433
       7756.0027       6.1860752
       7756.9786       4.5266215
       7757.9544       4.0715837
       7758.9303       3.6328058
       7759.9061       3.9616187
       7760.8820       4.1713013
       7761.8578       4.2017720
       7762.8337       3.7529977
       7763.8095       4.0558310
       7764.7854       4.0222519
       7765.7612       3.6537379
       7766.7371       3.6836238
       7767.7129       3.4293392
       7768.6888       3.0954061
       7769.6646       3.1444176
       7770.6405       2.8104136
       7771.6163       2.1105536
       7772.5922       1.7222751
       7773.5680       1.6850799
       7774.5439       2.2046302
       7775.5197       3.6861676
       7776.4956       4.8108917
       7777.4714       5.1844517
       7778.4473       4.9389098
       7779.4231       4.6854881
       7780.3990       4.3931473
       7781.3749       4.4678853
       7782.3507       4.6462589
       7783.3266       4.3112842
       7784.3024       5.8427070
       7785.2783       4.5729642
       7786.2541       2.4638696
       7787.2300       2.0024500
       7788.2058       4.1555299
       7789.1817       4.6763731
       7790.1575       5.6572885
       7791.1334       7.1114615
       7792.1092       5.5579311
       7793.0851       4.1364761
       7794.0609       4.0536657
       7795.0368       3.7555377
       7796.0126       3.6875703
       7796.9885       3.5824256
       7797.9643       4.2628947
       7798.9402       4.2654719
       7799.9160       4.0458844
       7800.8919       4.1032629
       7801.8677       4.0451479
       7802.8436       4.1047519
       7803.8194       3.3191956
       7804.7953       4.4187853
       7805.7712       4.2830480
       7806.7470       3.6540794
       7807.7229       3.3534350
       7808.6987       3.6793765
       7809.6746       3.5151431
       7810.6504       2.8627665
       7811.6263       2.8678855
       7812.6021       3.8329328
       7813.5780       3.6191886
       7814.5538       4.1277391
       7815.5297       4.1000715
       7816.5055       4.4041759
       7817.4814       4.4860688
       7818.4572       4.3993269
       7819.4331       3.9225460
       7820.4089       4.2071436
       7821.3848       4.0749967
       7822.3606       3.8099393
       7823.3365       2.8131236
       7824.3123       2.2506136
       7825.2882       2.7543549
       7826.2640       3.0811108
       7827.2399       4.3700025
       7828.2157       4.3924993
       7829.1916       6.0543734
       7830.1675       6.4877114
       7831.1433       5.0692183
       7832.1192       4.7666558
       7833.0950       4.5033277
       7834.0709       4.3875694
       7835.0467       4.5423500
       7836.0226       3.8905226
       7836.9984       3.6940379
       7837.9743       3.9162537
       7838.9501       3.8544628
       7839.9260       4.4942740
       7840.9018       4.3597462
       7841.8777       4.1826624
       7842.8535       3.9699704
       7843.8294       3.9123788
       7844.8052       3.6145328
       7845.7811       3.4092103
       7846.7569       3.4498566
       7847.7328       3.7802794
       7848.7086       3.9864081
       7849.6845       4.0186137
       7850.6603       4.4267630
       7851.6362       4.1525522
       7852.6120       4.4713475
       7853.5879       4.4376466
       7854.5638       4.4459190
       7855.5396       4.8487837
       7856.5155       4.1614358
       7857.4913       3.4986807
       7858.4672       3.7885916
       7859.4430       3.1156042
       7860.4189       3.4840942
       7861.3947       4.1350660
       7862.3706       4.6533032
       7863.3464       4.5683982
       7864.3223       4.7870922
       7865.2981       4.2131467
       7866.2740       4.1105487
       7867.2498       3.7834271
       7868.2257       3.9663767
       7869.2015       3.8224331
       7870.1774       3.0047430
       7871.1532       4.0825117
       7872.1291       4.8156767
       7873.1049       4.4685070
       7874.0808       4.2750511
       7875.0566       4.3957989
       7876.0325       4.8801480
       7877.0083       4.2635460
       7877.9842       4.3609327
       7878.9601       4.2173205
       7879.9359       4.5946655
       7880.9118       4.6645258
       7881.8876       4.6423068
       7882.8635       4.0990999
       7883.8393       3.9656568
       7884.8152       3.9672206
       7885.7910       3.8882837
       7886.7669       4.0645012
       7887.7427       4.3856796
       7888.7186       4.1322994
       7889.6944       3.7719744
       7890.6703       3.9060933
       7891.6461       3.9682101
       7892.6220       4.0015804
       7893.5978       4.3322302
       7894.5737       4.5885957
       7895.5495       4.3585756
       7896.5254       4.1125829
       7897.5012       4.4238885
       7898.4771       4.6691155
       7899.4529       3.9046033
       7900.4288       3.9977406
       7901.4046       4.1932857
       7902.3805       4.5048153
       7903.3564       3.8172195
       7904.3322       4.0296061
       7905.3081       4.2523740
       7906.2839       2.6700814
       7907.2598       3.1098823
       7908.2356       3.4498009
       7909.2115       3.1649733
       7910.1873       3.9824920
       7911.1632       3.1852043
       7912.1390       4.2546563
       7913.1149       3.3692040
       7914.0907       3.7083272
       7915.0666       4.9127060
       7916.0424       4.9121290
       7917.0183       4.9491768
       7917.9941       3.6568019
       7918.9700       2.5896650
       7919.9458       3.8987428
       7920.9217       3.2501317
       7921.8975       5.5224286
       7922.8734       4.8592088
       7923.8492       5.4233989
       7924.8251       4.6157973
       7925.8009       4.4239211
       7926.7768       4.2530208
       7927.7527       4.8689299
       7928.7285       5.1154202
       7929.7044       4.1751849
       7930.6802       4.1030019
       7931.6561       2.9472814
       7932.6319       3.2589204
       7933.6078       4.1153979
       7934.5836       4.4779024
       7935.5595       4.1755832
       7936.5353       4.6595798
       7937.5112       5.4836677
       7938.4870       4.6890870
       7939.4629       4.8572819
       7940.4387       4.6786440
       7941.4146       4.4921548
       7942.3904       4.3187627
       7943.3663       3.8575973
       7944.3421       4.6062279
       7945.3180       4.6853014
       7946.2938       4.6954022
       7947.2697       5.1619217
       7948.2455       2.0206529
       7949.2214       3.6719053
       7950.1972       2.8910136
       7951.1731       3.2388464
       7952.1490       6.5402045
       7953.1248       6.1790114
       7954.1007       6.3177545
       7955.0765       5.6091211
       7956.0524       5.0532808
       7957.0282       4.3477451
       7958.0041       4.8225497
       7958.9799       4.5887912
       7959.9558       4.3033387
       7960.9316       4.1402723
       7961.9075       3.8792596
       7962.8833       3.8315648
       7963.8592       3.6171520
       7964.8350       3.9346023
       7965.8109       4.5036470
       7966.7867       4.7347332
       7967.7626       4.3046497
       7968.7384       4.7423889
       7969.7143       4.4622971
       7970.6901       4.0926087
       7971.6660       4.7717842
       7972.6418       4.2760297
       7973.6177       4.4735977
       7974.5935       5.2116878
       7975.5694       4.7582379
       7976.5453       4.8439531
       7977.5211       4.1454788
       7978.4970       4.2591984
       7979.4728       3.9867371
       7980.4487       4.1152363
       7981.4245       4.0753945
       7982.4004       4.0005476
       7983.3762       3.9008782
       7984.3521       4.3596127
       7985.3279       4.1615254
       7986.3038       4.2492133
       7987.2796       4.6994274
       7988.2555       4.5344436
       7989.2313       4.3412358
       7990.2072       4.6536206
       7991.1830       4.1005708
       7992.1589       4.7182315
       7993.1347       4.6459841
       7994.1106       4.5946536
       7995.0864       4.9399223
       7996.0623       4.1333402
       7997.0381       4.7498764
       7998.0140       4.3537538
       7998.9898       4.8432614
       7999.9657       4.5577197
       8000.9416       4.7860102
