# wavelength flux
       2317.5242    -0.046109922
       2318.3239      0.11724455
       2319.1236   -0.0083255908
       2319.9233    -0.041607326
       2320.7230      0.12217055
       2321.5227   -0.0092685781
       2322.3224    -0.069198552
       2323.1220     0.034424874
       2323.9217     0.021637829
       2324.7214      0.11835382
       2325.5211     0.048062589
       2326.3208    -0.063129449
       2327.1205     0.042567998
       2327.9202    0.0075813037
       2328.7199      0.16238339
       2329.5196     0.074357190
       2330.3193      0.13519444
       2331.1189     0.011040150
       2331.9186     0.069011194
       2332.7183    -0.060267894
       2333.5180    0.0060363723
       2334.3177    0.0067149268
       2335.1174    -0.046931745
       2335.9171    -0.031254147
       2336.7168    -0.040317398
       2337.5165     0.027704070
       2338.3162     0.075343949
       2339.1158    -0.086596158
       2339.9155     0.045227844
       2340.7152     0.063416636
       2341.5149     -0.10730702
       2342.3146      0.10030647
       2343.1143     0.081391637
       2343.9140   -0.0012009864
       2344.7137     0.066448236
       2345.5134     0.066468978
       2346.3131     0.053035162
       2347.1127     0.085210684
       2347.9124     0.035658709
       2348.7121      0.11793816
       2349.5118      0.18117284
       2350.3115     0.065697373
       2351.1112      0.11395451
       2351.9109     0.075764780
       2352.7106     0.070205188
       2353.5103     0.085761915
       2354.3100     0.050697629
       2355.1096     0.029712118
       2355.9093     0.067394506
       2356.7090     0.015639438
       2357.5087     0.041808561
       2358.3084     0.049874734
       2359.1081     0.039445037
       2359.9078      0.10676709
       2360.7075     0.072483423
       2361.5072    -0.012473482
       2362.3069     0.032590755
       2363.1065      0.13688313
       2363.9062    -0.010709347
       2364.7059    -0.061508560
       2365.5056    0.0042928763
       2366.3053     0.083958262
       2367.1050     0.072845105
       2367.9047     0.064024900
       2368.7044      0.15391118
       2369.5041     0.062967184
       2370.3038    -0.036433830
       2371.1035     0.013531468
       2371.9031   -0.0047376350
       2372.7028    -0.018549996
       2373.5025    -0.067300558
       2374.3022     0.069274118
       2375.1019     0.064162667
       2375.9016    -0.047603814
       2376.7013     0.065952220
       2377.5010    0.0080195564
       2378.3007     0.089984933
       2379.1004     0.018154510
       2379.9000     0.063468170
       2380.6997    -0.055392762
       2381.4994    0.0024535624
       2382.2991     0.013843923
       2383.0988     0.048094235
       2383.8985    -0.013694895
       2384.6982     0.095586478
       2385.4979    0.0011286077
       2386.2976     0.053543440
       2387.0973     0.057436387
       2387.8969     0.025680392
       2388.6966     0.055288854
       2389.4963     0.087689064
       2390.2960     0.042655079
       2391.0957     0.053291498
       2391.8954      0.14364373
       2392.6951     0.092491646
       2393.4948     0.077170148
       2394.2945    0.0083178080
       2395.0942     0.050359142
       2395.8938     0.092832600
       2396.6935    0.0021923609
       2397.4932     0.096973588
       2398.2929      0.10502594
       2399.0926     0.056485315
       2399.8923     0.011997926
       2400.6920    -0.025336060
       2401.4917     0.062527374
       2402.2914     0.023359395
       2403.0911     0.093285976
       2403.8907     0.062302397
       2404.6904     0.045995364
       2405.4901     0.044900654
       2406.2898     0.037822682
       2407.0895      0.10068162
       2407.8892    -0.018311689
       2408.6889     0.064433583
       2409.4886     0.041155437
       2410.2883     0.069559928
       2411.0880      0.18148980
       2411.8876      0.16507534
       2412.6873      0.13489378
       2413.4870     0.098093940
       2414.2867     0.038000025
       2415.0864      0.14088393
       2415.8861    -0.013507703
       2416.6858      0.11710787
       2417.4855     0.062753402
       2418.2852     0.016833030
       2419.0849    -0.015522381
       2419.8845     0.043877815
       2420.6842     0.036152296
       2421.4839     0.029166574
       2422.2836     0.096582293
       2423.0833   -0.0099422276
       2423.8830     0.068233150
       2424.6827     0.046624357
       2425.4824     0.086544576
       2426.2821     0.078416573
       2427.0818     0.050698662
       2427.8814    -0.021042173
       2428.6811     0.033449402
       2429.4808    -0.044101069
       2430.2805      0.10488162
       2431.0802    0.0045339774
       2431.8799    -0.012311917
       2432.6796     0.088489981
       2433.4793      0.13222257
       2434.2790    -0.089200886
       2435.0787     0.043450171
       2435.8783   -0.0010182552
       2436.6780      0.14476195
       2437.4777     0.017175301
       2438.2774     0.090648060
       2439.0771    -0.011287009
       2439.8768      0.12360499
       2440.6765      0.13392144
       2441.4762     0.020389952
       2442.2759     0.036885193
       2443.0756     0.044657492
       2443.8752      0.13122793
       2444.6749     0.019777463
       2445.4746    -0.018010562
       2446.2743     0.031454347
       2447.0740     0.021932298
       2447.8737     0.041692240
       2448.6734      0.11577046
       2449.4731     0.098832296
       2450.2728    0.0099693750
       2451.0725     0.095167774
       2451.8721     0.047541451
       2452.6718     0.073885818
       2453.4715     0.064321032
       2454.2712     0.011107312
       2455.0709     0.013461103
       2455.8706     0.016699524
       2456.6703     0.075192339
       2457.4700     0.040816194
       2458.2697    0.0019828335
       2459.0694     0.021195743
       2459.8690     0.074110567
       2460.6687     0.041280966
       2461.4684     0.018501505
       2462.2681     0.011600504
       2463.0678     0.037184022
       2463.8675     0.049546814
       2464.6672     0.031593865
       2465.4669   -0.0057043887
       2466.2666     0.025890214
       2467.0663   0.00076611515
       2467.8659     0.056804247
       2468.6656     0.039215059
       2469.4653    -0.025355354
       2470.2650     0.082604644
       2471.0647     0.070582778
       2471.8644     0.080939821
       2472.6641     0.059318028
       2473.4638     0.098714026
       2474.2635    -0.015248451
       2475.0632    -0.017117010
       2475.8628     0.061127661
       2476.6625     0.028273935
       2477.4622   -0.0023112613
       2478.2619   -0.0037090812
       2479.0616     0.079130410
       2479.8613     0.098925903
       2480.6610     0.047713701
       2481.4607     0.081418665
       2482.2604     0.019964582
       2483.0601    0.0014939029
       2483.8597      0.16525701
       2484.6594      0.10945283
       2485.4591     0.090163889
       2486.2588   -0.0034075667
       2487.0585     0.048420802
       2487.8582     0.055686890
       2488.6579      0.15162841
       2489.4576     0.085882547
       2490.2573     0.043496133
       2491.0570   -0.0051991772
       2491.8566     0.037026632
       2492.6563     0.076495126
       2493.4560     0.058576290
       2494.2557     0.082222999
       2495.0554     0.057744375
       2495.8551     0.093939184
       2496.6548   -0.0054557879
       2497.4545     0.043961220
       2498.2542     0.076140641
       2499.0539     0.046141519
       2499.8535   -0.0084340239
       2500.6532     0.025918152
       2501.4529    -0.013150252
       2502.2526    -0.012498751
       2503.0523     0.058786392
       2503.8520     0.068283776
       2504.6517    -0.019392802
       2505.4514     0.055081777
       2506.2511     0.091171340
       2507.0508     0.011418829
       2507.8504     0.076001443
       2508.6501     0.098909346
       2509.4498     0.064716568
       2510.2495   -0.0086846792
       2511.0492     0.022767499
       2511.8489     0.013531470
       2512.6486     0.020870822
       2513.4483   -0.0056396764
       2514.2480     0.039554761
       2515.0477    -0.046094497
       2515.8473     0.059413555
       2516.6470     0.048889368
       2517.4467     0.035929212
       2518.2464     0.077702318
       2519.0461     0.041384474
       2519.8458    -0.011643570
       2520.6455     0.081631888
       2521.4452      0.11135290
       2522.2449      0.12080587
       2523.0446     0.060160582
       2523.8443     0.073274065
       2524.6439     0.036800959
       2525.4436     0.058953080
       2526.2433      0.10412300
       2527.0430     0.058406050
       2527.8427     0.016766297
       2528.6424      0.10081325
       2529.4421     0.057470159
       2530.2418     0.044458725
       2531.0415    -0.025236959
       2531.8412     0.034707359
       2532.6408     0.057249400
       2533.4405     0.026132533
       2534.2402     0.044468650
       2535.0399      0.11788043
       2535.8396    0.0037856278
       2536.6393     0.067240504
       2537.4390     0.071451921
       2538.2387     0.052856038
       2539.0384    0.0047723271
       2539.8381     0.068105197
       2540.6377     0.047981792
       2541.4374    0.0072123080
       2542.2371      0.11737164
       2543.0368     0.072830979
       2543.8365     0.010323781
       2544.6362     0.049095382
       2545.4359    0.0021024371
       2546.2356     0.086250172
       2547.0353     0.034527504
       2547.8350     0.090990909
       2548.6346     0.039998943
       2549.4343     0.060014259
       2550.2340     0.061286957
       2551.0337     0.050924827
       2551.8334     0.029745134
       2552.6331     0.054352084
       2553.4328     0.048583769
       2554.2325      0.17944309
       2555.0322     0.079128882
       2555.8319      0.10958341
       2556.6315     0.076494841
       2557.4312     0.055751159
       2558.2309      0.11180526
       2559.0306     0.025724747
       2559.8303     0.024204884
       2560.6300      0.17630469
       2561.4297      0.10917148
       2562.2294     0.068236446
       2563.0291     0.052459534
       2563.8288     0.077911978
       2564.6284     0.049329625
       2565.4281    -0.030929594
       2566.2278    -0.024641685
       2567.0275     0.026262275
       2567.8272     0.047943758
       2568.6269    0.0013055869
       2569.4266      0.11961580
       2570.2263     0.092396194
       2571.0260    0.0080137125
       2571.8257     0.041667974
       2572.6253     0.013338983
       2573.4250     0.020116942
       2574.2247     0.041061516
       2575.0244     0.032814223
       2575.8241     0.087588030
       2576.6238     0.065058144
       2577.4235     0.074952023
       2578.2232     0.067282872
       2579.0229     0.092701953
       2579.8226     0.058178053
       2580.6222     0.065278567
       2581.4219     0.022223881
       2582.2216     0.060820944
       2583.0213     0.044195668
       2583.8210  -0.00040333535
       2584.6207     0.038367514
       2585.4204     0.037680693
       2586.2201     0.064192188
       2587.0198     0.016991598
       2587.8195     0.088722574
       2588.6191    -0.035013985
       2589.4188     0.022524170
       2590.2185     0.049708986
       2591.0182     0.027658545
       2591.8179     0.036436226
       2592.6176     0.010812360
       2593.4173   -0.0031940472
       2594.2170     0.036515604
       2595.0167     0.050086966
       2595.8164     0.065577494
       2596.6160     0.049920917
       2597.4157     0.066404687
       2598.2154     0.039018361
       2599.0151     0.016817311
       2599.8148     0.035251002
       2600.6145     0.066349433
       2601.4142     0.048684485
       2602.2139     0.031463954
       2603.0136     0.048983790
       2603.8133     0.072694351
       2604.6129     0.060973681
       2605.4126     0.045212410
       2606.2123     0.043501555
       2607.0120     0.089358416
       2607.8117     0.037364997
       2608.6114     0.039737808
       2609.4111     0.094118790
       2610.2108    0.0018153853
       2611.0105      0.12554710
       2611.8102     0.089959411
       2612.6098      0.16714797
       2613.4095   -0.0024655733
       2614.2092     0.065382970
       2615.0089    -0.013442234
       2615.8086    -0.038164704
       2616.6083     0.079359221
       2617.4080     0.067913886
       2618.2077     0.025289606
       2619.0074      0.14625432
       2619.8071     0.066871085
       2620.6067     0.061958947
       2621.4064      0.10779126
       2622.2061     0.060005398
       2623.0058     0.095556676
       2623.8055     0.010274135
       2624.6052     0.068529513
       2625.4049      0.11886814
       2626.2046     0.049438658
       2627.0043     0.014021010
       2627.8040     0.066675089
       2628.6036     0.050454654
       2629.4033     0.034591875
       2630.2030     0.035034680
       2631.0027     0.069508127
       2631.8024     0.027659725
       2632.6021     0.043205338
       2633.4018     0.034136872
       2634.2015     0.032820270
       2635.0012     0.057486317
       2635.8009     0.071841318
       2636.6005     0.056194651
       2637.4002      0.11729166
       2638.1999     0.074983921
       2638.9996     0.066599768
       2639.7993     0.031960416
       2640.5990     0.057282471
       2641.3987     0.096967767
       2642.1984    -0.023795771
       2642.9981     0.097702322
       2643.7978     0.099387015
       2644.5974     0.089561018
       2645.3971  -0.00041856507
       2646.1968     0.089928946
       2646.9965     0.011005518
       2647.7962     0.072599696
       2648.5959     0.066156780
       2649.3956     0.079967911
       2650.1953     0.030632220
       2650.9950     0.045512676
       2651.7947     0.063923921
       2652.5943     0.074114295
       2653.3940     0.082631999
       2654.1937     0.068334350
       2654.9934     0.069101199
       2655.7931     0.092690112
       2656.5928     0.065670540
       2657.3925     0.078115304
       2658.1922      0.10792809
       2658.9919      0.10506661
       2659.7916      0.10132473
       2660.5912    0.0085586465
       2661.3909     0.021863744
       2662.1906     0.066076289
       2662.9903     0.029290127
       2663.7900      0.13881677
       2664.5897      0.10279121
       2665.3894     0.094990557
       2666.1891     0.034935671
       2666.9888     0.061749711
       2667.7885   -0.0034926868
       2668.5881     0.047097641
       2669.3878     0.077620268
       2670.1875     0.090192838
       2670.9872      0.11876536
       2671.7869     0.020666113
       2672.5866     0.017234763
       2673.3863     0.049197461
       2674.1860     0.018145487
       2674.9857     0.067953715
       2675.7854     0.067612497
       2676.5851     0.045390858
       2677.3847     0.044536138
       2678.1844      0.14073214
       2678.9841     0.051225105
       2679.7838      0.10858229
       2680.5835     0.015194350
       2681.3832      0.14794063
       2682.1829     0.065241281
       2682.9826      0.13108604
       2683.7823   -0.0094399073
       2684.5820     0.053673353
       2685.3816     0.041964659
       2686.1813     0.027094502
       2686.9810     0.070805597
       2687.7807     0.093379020
       2688.5804     0.061019457
       2689.3801      0.12936138
       2690.1798     0.088201989
       2690.9795     0.019896173
       2691.7792     0.047153306
       2692.5789      0.13472998
       2693.3785      0.12094835
       2694.1782     0.039992273
       2694.9779     0.077062981
       2695.7776     0.090591452
       2696.5773      0.12033561
       2697.3770     0.089269716
       2698.1767      0.12930162
       2698.9764     0.017789625
       2699.7761     0.074279974
       2700.5758      0.11565142
       2701.3754     0.048675321
       2702.1751      0.11928982
       2702.9748      0.11532419
       2703.7745     0.053292959
       2704.5742      0.13116341
       2705.3739     0.061480789
       2706.1736     0.077322784
       2706.9733     0.082214644
       2707.7730     0.093422952
       2708.5727      0.13174415
       2709.3723      0.11841392
       2710.1720     0.099250682
       2710.9717     0.082849791
       2711.7714     0.078595846
       2712.5711     0.050219709
       2713.3708     0.056091398
       2714.1705     0.060028145
       2714.9702     0.071865743
       2715.7699     0.082579344
       2716.5696     0.020136488
       2717.3692     0.056518351
       2718.1689     0.038943139
       2718.9686     0.091030379
       2719.7683     0.062481577
       2720.5680     0.076105454
       2721.3677   -0.0088531701
       2722.1674     0.049902800
       2722.9671     0.044921867
       2723.7668     0.085076256
       2724.5665     0.070021286
       2725.3661     0.081289982
       2726.1658     0.086523841
       2726.9655     0.049283454
       2727.7652      0.10096030
       2728.5649     0.041146814
       2729.3646     0.093767201
       2730.1643     0.079150814
       2730.9640      0.16678474
       2731.7637     0.056122381
       2732.5634      0.17556526
       2733.3630      0.11222246
       2734.1627      0.10609510
       2734.9624      0.14802101
       2735.7621      0.11636731
       2736.5618      0.10496369
       2737.3615     0.013756186
       2738.1612     0.038332901
       2738.9609     0.070823331
       2739.7606      0.14253599
       2740.5603     0.070950517
       2741.3599     0.054138358
       2742.1596     0.047642993
       2742.9593      0.10567570
       2743.7590      0.14703047
       2744.5587     0.024356426
       2745.3584      0.10246220
       2746.1581     0.066712341
       2746.9578     0.082753491
       2747.7575     0.081261572
       2748.5572     0.049520605
       2749.3568     0.063479784
       2750.1565     0.067794029
       2750.9562      0.12957200
       2751.7559      0.11919613
       2752.5556     0.060797419
       2753.3553     0.070487387
       2754.1550     0.082992793
       2754.9547     0.018763095
       2755.7544      0.13393826
       2756.5541      0.11626695
       2757.3537      0.14047266
       2758.1534     0.074470827
       2758.9531     0.023756003
       2759.7528     0.064149490
       2760.5525     0.069591768
       2761.3522     0.084426300
       2762.1519     0.069413631
       2762.9516     0.036998626
       2763.7513      0.13639351
       2764.5510     0.083559307
       2765.3506     0.046547534
       2766.1503     0.070438349
       2766.9500     0.091778280
       2767.7497     0.029095466
       2768.5494     0.045711993
       2769.3491      0.10952445
       2770.1488     0.055299798
       2770.9485     0.069865124
       2771.7482      0.13867626
       2772.5479      0.10559518
       2773.3475     0.064142756
       2774.1472      0.16517238
       2774.9469     0.056512052
       2775.7466      0.10132865
       2776.5463     0.046537397
       2777.3460     0.013359523
       2778.1457     0.065534202
       2778.9454     0.094747143
       2779.7451     0.099459119
       2780.5448     0.067979415
       2781.3444     0.070326569
       2782.1441     0.094530584
       2782.9438     0.040456032
       2783.7435     0.045360250
       2784.5432     0.043516420
       2785.3429     0.094118601
       2786.1426     0.059448376
       2786.9423     0.055218558
       2787.7420      0.15327001
       2788.5417     0.057598933
       2789.3413     0.050328258
       2790.1410     0.094127212
       2790.9407      0.10681736
       2791.7404     0.084202896
       2792.5401     0.046728184
       2793.3398     0.037527205
       2794.1395     0.085323155
       2794.9392     0.033897312
       2795.7389     0.088382831
       2796.5386     0.064801209
       2797.3382     0.048174200
       2798.1379     0.082820122
       2798.9376     0.044239092
       2799.7373     0.081655853
       2800.5370     0.086596751
       2801.3367     0.035881481
       2802.1364     0.040019922
       2802.9361     0.058994403
       2803.7358     0.051374291
       2804.5355     0.077666149
       2805.3351     0.078719486
       2806.1348      0.10695258
       2806.9345     0.055216263
       2807.7342     0.051009500
       2808.5339     0.038593269
       2809.3336     0.048846209
       2810.1333     0.086156152
       2810.9330     0.082560745
       2811.7327     0.059811967
       2812.5324     0.070286182
       2813.3320     0.052628478
       2814.1317     0.076505589
       2814.9314     0.017203517
       2815.7311     0.043957829
       2816.5308     0.034083381
       2817.3305     0.019276874
       2818.1302     0.042298364
       2818.9299     0.080508789
       2819.7296     0.041838612
       2820.5293     0.074370799
       2821.3289     0.043486991
       2822.1286     0.068500484
       2822.9283     0.055616122
       2823.7280     0.038477255
       2824.5277     0.082252073
       2825.3274      0.17944444
       2826.1271      0.25868578
       2826.9268      0.21259185
       2827.7265     0.060367264
       2828.5262     0.057184021
       2829.3259      0.10530574
       2830.1255     0.016507962
       2830.9252     0.068353877
       2831.7249     0.030794406
       2832.5246      0.11067074
       2833.3243      0.10165604
       2834.1240      0.13473625
       2834.9237     0.070578146
       2835.7234      0.14517188
       2836.5231     0.062255676
       2837.3228     0.097079392
       2838.1224      0.10347172
       2838.9221      0.11946564
       2839.7218     0.069518515
       2840.5215     0.051956799
       2841.3212      0.11226926
       2842.1209     0.059287758
       2842.9206      0.10150234
       2843.7203     0.057086245
       2844.5200      0.10623503
       2845.3197     0.064831109
       2846.1193     0.069157282
       2846.9190      0.12872280
       2847.7187      0.12541110
       2848.5184     0.097973629
       2849.3181     0.046415648
       2850.1178     0.084833808
       2850.9175     0.083217286
       2851.7172      0.14916327
       2852.5169     0.055958789
       2853.3166     0.091808337
       2854.1162     0.072029409
       2854.9159     0.077660467
       2855.7156     0.060185493
       2856.5153     0.026169060
       2857.3150     0.038843415
       2858.1147     0.074228735
       2858.9144      0.10011095
       2859.7141     0.068756567
       2860.5138     0.058708709
       2861.3135     0.056327969
       2862.1131     0.092322071
       2862.9128     0.092850477
       2863.7125     0.037037710
       2864.5122     0.048158566
       2865.3119     0.064968337
       2866.1116     0.083425042
       2866.9113     0.085594566
       2867.7110     0.086217687
       2868.5107     0.091560176
       2869.3104     0.075044598
       2870.1100     0.061093451
       2870.9097     0.091109343
       2871.7094     0.032255328
       2872.5091     0.063131653
       2873.3088     0.084056813
       2874.1085     0.054519013
       2874.9082     0.088628934
       2875.7079      0.10313784
       2876.5076     0.081496215
       2877.3073     0.080870395
       2878.1069      0.10711576
       2878.9066     0.058870473
       2879.7063     0.051058342
       2880.5060      0.10148203
       2881.3057     0.047994378
       2882.1054     0.073618621
       2882.9051     0.092122732
       2883.7048      0.12184903
       2884.5045      0.14252740
       2885.3042      0.11635034
       2886.1038      0.18342286
       2886.9035     0.095542243
       2887.7032      0.12521709
       2888.5029     0.087955959
       2889.3026     0.098010285
       2890.1023      0.10995856
       2890.9020     0.068600966
       2891.7017     0.073993436
       2892.5014     0.081743829
       2893.3011      0.11027911
       2894.1007     0.032183264
       2894.9004     0.045581754
       2895.7001     0.090644099
       2896.4998     0.086241372
       2897.2995     0.066153396
       2898.0992      0.10669545
       2898.8989     0.087989207
       2899.6986     0.070220594
       2900.4983     0.066710167
       2901.2980     0.033324643
       2902.0976     0.075516053
       2902.8973      0.11318557
       2903.6970     0.070567679
       2904.4967     0.036071945
       2905.2964     0.096668880
       2906.0961     0.043468589
       2906.8958     0.048737838
       2907.6955     0.068234135
       2908.4952     0.080560193
       2909.2949     0.042413929
       2910.0945      0.10404424
       2910.8942     0.072789737
       2911.6939     0.094978607
       2912.4936     0.086549585
       2913.2933     0.083576943
       2914.0930      0.12566517
       2914.8927     0.072322566
       2915.6924     0.082224738
       2916.4921     0.060174061
       2917.2918     0.075526959
       2918.0914     0.074225899
       2918.8911     0.078835734
       2919.6908     0.098436545
       2920.4905      0.15473987
       2921.2902      0.10331096
       2922.0899      0.10244805
       2922.8896      0.11558718
       2923.6893      0.11762971
       2924.4890     0.080819647
       2925.2887     0.099297128
       2926.0883     0.080574325
       2926.8880     0.094107652
       2927.6877     0.066672169
       2928.4874     0.074832190
       2929.2871      0.11340527
       2930.0868      0.10377047
       2930.8865     0.040096318
       2931.6862     0.072690258
       2932.4859      0.11912107
       2933.2856      0.11684586
       2934.0852     0.074361692
       2934.8849     0.091660145
       2935.6846     0.081722400
       2936.4843     0.071487801
       2937.2840      0.11104095
       2938.0837     0.077327547
       2938.8834      0.12809998
       2939.6831     0.081267890
       2940.4828      0.10859428
       2941.2825     0.074702596
       2942.0821     0.078299190
       2942.8818    0.0035471957
       2943.6815     0.065510545
       2944.4812     0.053727191
       2945.2809     0.087542393
       2946.0806     0.061254589
       2946.8803     0.082277727
       2947.6800      0.11866113
       2948.4797     0.079401778
       2949.2794     0.065635344
       2950.0790     0.092489588
       2950.8787     0.052363314
       2951.6784     0.079075556
       2952.4781     0.073726862
       2953.2778     0.098306801
       2954.0775      0.11332616
       2954.8772     0.097217185
       2955.6769     0.065232156
       2956.4766      0.10194502
       2957.2763     0.080621685
       2958.0759     0.070626970
       2958.8756     0.059068978
       2959.6753      0.11376541
       2960.4750      0.11504038
       2961.2747     0.078154845
       2962.0744      0.10497796
       2962.8741     0.099773530
       2963.6738     0.048959228
       2964.4735     0.030916952
       2965.2732     0.097006847
       2966.0728     0.078844125
       2966.8725     0.059273165
       2967.6722     0.044912451
       2968.4719     0.083836260
       2969.2716      0.10365790
       2970.0713     0.072323031
       2970.8710      0.11524772
       2971.6707     0.082453195
       2972.4704      0.10596667
       2973.2701     0.079098317
       2974.0697      0.10731608
       2974.8694     0.081518500
       2975.6691     0.047967985
       2976.4688     0.061593828
       2977.2685     0.077758831
       2978.0682      0.12561296
       2978.8679      0.10441812
       2979.6676      0.11263603
       2980.4673      0.13024867
       2981.2670     0.088045008
       2982.0667      0.11085123
       2982.8663     0.097123819
       2983.6660     0.076271501
       2984.4657      0.10696097
       2985.2654     0.063351386
       2986.0651     0.041239858
       2986.8648     0.070128806
       2987.6645     0.068055755
       2988.4642     0.063669280
       2989.2639     0.063506493
       2990.0636     0.085395895
       2990.8632      0.11607098
       2991.6629      0.14307504
       2992.4626      0.13832483
       2993.2623      0.14158885
       2994.0620     0.091998097
       2994.8617      0.10966590
       2995.6614     0.096741185
       2996.4611     0.096596801
       2997.2608      0.12970268
       2998.0605     0.098791423
       2998.8601     0.054902612
       2999.6598     0.061060456
       3000.4595     0.071963007
       3001.2592     0.076908661
       3002.0589     0.094415692
       3002.8586      0.10275438
       3003.6583     0.077590501
       3004.4580     0.087854074
       3005.2577      0.12601329
       3006.0574      0.12096692
       3006.8570      0.11673601
       3007.6567      0.13456127
       3008.4564      0.11486351
       3009.2561      0.13833301
       3010.0558     0.086763752
       3010.8555      0.11983973
       3011.6552     0.073365549
       3012.4549      0.12462069
       3013.2546      0.11933497
       3014.0543     0.082814873
       3014.8539     0.058532098
       3015.6536      0.16739680
       3016.4533      0.12395930
       3017.2530     0.073415760
       3018.0527      0.13035398
       3018.8524     0.065638318
       3019.6521     0.086139838
       3020.4518     0.095895794
       3021.2515      0.13528409
       3022.0512     0.069400567
       3022.8508     0.042587733
       3023.6505      0.10093637
       3024.4502     0.097736928
       3025.2499      0.11379637
       3026.0496     0.099709721
       3026.8493     0.043096060
       3027.6490      0.10063415
       3028.4487     0.063019571
       3029.2484     0.080088056
       3030.0481     0.082354442
       3030.8477     0.049375589
       3031.6474     0.094138961
       3032.4471      0.11883168
       3033.2468     0.087896346
       3034.0465     0.076951118
       3034.8462     0.078132144
       3035.6459     0.093176429
       3036.4456     0.093912842
       3037.2453     0.077156028
       3038.0450      0.10867153
       3038.8446     0.071035298
       3039.6443     0.084607885
       3040.4440      0.10053825
       3041.2437      0.11293481
       3042.0434     0.097981635
       3042.8431     0.051443595
       3043.6428      0.13388343
       3044.4425      0.12603361
       3045.2422      0.12453759
       3046.0419     0.091402153
       3046.8415      0.12140391
       3047.6412      0.12279473
       3048.4409      0.10224129
       3049.2406      0.10880840
       3050.0403      0.16881146
       3050.8400     0.080362356
       3051.6397     0.090906298
       3052.4394     0.076375038
       3053.2391      0.13269710
       3054.0388     0.068184604
       3054.8384      0.12706241
       3055.6381      0.13262847
       3056.4378     0.084922736
       3057.2375     0.087764557
       3058.0372     0.085871653
       3058.8369      0.14014274
       3059.6366      0.14723473
       3060.4363      0.13160194
       3061.2360      0.13263726
       3062.0357      0.11181515
       3062.8353     0.086452209
       3063.6350      0.13059416
       3064.4347      0.11561386
       3065.2344      0.10488085
       3066.0341     0.088026151
       3066.8338      0.11706989
       3067.6335     0.092974057
       3068.4332     0.090416080
       3069.2329      0.14979848
       3070.0326     0.070430707
       3070.8322      0.11651537
       3071.6319      0.13158942
       3072.4316      0.14295559
       3073.2313     0.073808184
       3074.0310      0.12520211
       3074.8307     0.095852428
       3075.6304      0.10044141
       3076.4301      0.13632369
       3077.2298      0.11239432
       3078.0295      0.13393506
       3078.8291     0.099449182
       3079.6288      0.19480957
       3080.4285      0.10653363
       3081.2282      0.14317664
       3082.0279      0.12502646
       3082.8276      0.11419948
       3083.6273     0.090366521
       3084.4270      0.10564428
       3085.2267      0.10188674
       3086.0264      0.12807487
       3086.8260      0.18315868
       3087.6257      0.10430820
       3088.4254      0.13851244
       3089.2251     0.077503035
       3090.0248      0.12331388
       3090.8245      0.11087084
       3091.6242      0.10864715
       3092.4239      0.14282839
       3093.2236      0.10051594
       3094.0233     0.056394592
       3094.8229      0.11119509
       3095.6226      0.10768502
       3096.4223      0.16306661
       3097.2220      0.11904462
       3098.0217      0.10880196
       3098.8214      0.12482264
       3099.6211      0.11748532
       3100.4208      0.10006819
       3101.2205      0.18270915
       3102.0202      0.16683010
       3102.8198      0.13893645
       3103.6195      0.14479732
       3104.4192      0.11836327
       3105.2189      0.11076179
       3106.0186      0.18944681
       3106.8183     0.099386669
       3107.6180      0.11047857
       3108.4177     0.058929727
       3109.2174     0.059548814
       3110.0171     0.070477597
       3110.8167      0.10862903
       3111.6164      0.11136602
       3112.4161      0.10870237
       3113.2158      0.13900254
       3114.0155     0.090669324
       3114.8152      0.14051310
       3115.6149     0.080510895
       3116.4146     0.038857840
       3117.2143      0.15187060
       3118.0140      0.10190025
       3118.8136      0.11195658
       3119.6133      0.12050976
       3120.4130     0.097112055
       3121.2127      0.14232895
       3122.0124      0.11365081
       3122.8121     0.093997312
       3123.6118      0.16350926
       3124.4115      0.11330019
       3125.2112      0.12886956
       3126.0109     0.086565362
       3126.8105      0.14077022
       3127.6102      0.10627654
       3128.4099      0.15656300
       3129.2096      0.16597479
       3130.0093      0.21939031
       3130.8090      0.11697528
       3131.6087      0.14505416
       3132.4084      0.11212972
       3133.2081      0.12951923
       3134.0078      0.13363827
       3134.8074      0.12816873
       3135.6071      0.11360796
       3136.4068      0.14594514
       3137.2065      0.10215320
       3138.0062      0.12210614
       3138.8059      0.13620234
       3139.6056      0.15949295
       3140.4053     0.084480125
       3141.2050      0.11114288
       3142.0047      0.11952141
       3142.8044      0.17859135
       3143.6040     0.078345094
       3144.4037      0.13333281
       3145.2034      0.15469069
       3146.0031      0.13217997
       3146.8028      0.12059616
       3147.6025     0.088718888
       3148.4022     0.095318558
       3149.2019      0.10268668
       3150.0016      0.12814906
       3150.8013     0.079639097
       3151.6009      0.12224579
       3152.4006      0.10302688
       3153.2003      0.15045152
       3154.0000      0.16748191
       3154.7997      0.19397083
       3155.5994      0.17648406
       3156.3991      0.13332362
       3157.1988     0.082415411
       3157.9985      0.15200018
       3158.7982      0.12944682
       3159.5978      0.12853470
       3160.3975      0.12896659
       3161.1972      0.10389411
       3161.9969      0.11180657
       3162.7966     0.092961847
       3163.5963      0.13800849
       3164.3960      0.14483544
       3165.1957      0.14231680
       3165.9954      0.15660870
       3166.7951      0.13138066
       3167.5947      0.16352656
       3168.3944      0.11421438
       3169.1941      0.11054774
       3169.9938      0.10205251
       3170.7935      0.12017625
       3171.5932      0.13157112
       3172.3929      0.10884767
       3173.1926     0.080513246
       3173.9923     0.098976048
       3174.7920      0.10706507
       3175.5916      0.16341084
       3176.3913     0.093984044
       3177.1910      0.15985067
       3177.9907     0.093378891
       3178.7904      0.13922258
       3179.5901      0.12382970
       3180.3898      0.11843231
       3181.1895      0.11943933
       3181.9892      0.14632229
       3182.7889      0.12137444
       3183.5885      0.12618917
       3184.3882      0.11121941
       3185.1879      0.10481080
       3185.9876      0.12610009
       3186.7873      0.14872467
       3187.5870      0.17217555
       3188.3867      0.15879653
       3189.1864      0.17707470
       3189.9861      0.16977636
       3190.7858      0.15382898
       3191.5854      0.15721446
       3192.3851     0.095791025
       3193.1848      0.11468177
       3193.9845      0.12954064
       3194.7842      0.14980584
       3195.5839      0.13434634
       3196.3836      0.12596883
       3197.1833      0.14425954
       3197.9830      0.11967384
       3198.7827      0.13843066
       3199.5823      0.14782035
       3200.3820      0.13479574
       3201.1817     0.082548112
       3201.9814      0.15337846
       3202.7811      0.10322223
       3203.5808      0.14559722
       3204.3805      0.11315829
       3205.1802      0.15787910
       3205.9799      0.13062944
       3206.7796     0.099922265
       3207.5792      0.15263022
       3208.3789      0.15141977
       3209.1786      0.10763338
       3209.9783      0.12044948
       3210.7780     0.078309871
       3211.5777      0.11598635
       3212.3774      0.15651830
       3213.1771      0.15120168
       3213.9768      0.12007861
       3214.7765      0.16437549
       3215.5761      0.13376414
       3216.3758      0.21329995
       3217.1755      0.14874958
       3217.9752      0.18935789
       3218.7749      0.13287857
       3219.5746      0.17885201
       3220.3743      0.12097244
       3221.1740      0.16410255
       3221.9737      0.13397672
       3222.7734     0.078631898
       3223.5730      0.17968278
       3224.3727      0.13829082
       3225.1724      0.14871969
       3225.9721      0.18908334
       3226.7718      0.13874674
       3227.5715      0.13661046
       3228.3712      0.14667830
       3229.1709      0.10261305
       3229.9706      0.14205378
       3230.7703     0.093210485
       3231.5699      0.12961939
       3232.3696      0.12945852
       3233.1693      0.11803166
       3233.9690      0.16688382
       3234.7687      0.12057299
       3235.5684      0.18242910
       3236.3681      0.13974701
       3237.1678      0.16980002
       3237.9675      0.11869988
       3238.7672      0.12603780
       3239.5668      0.13690615
       3240.3665      0.12676056
       3241.1662      0.15357606
       3241.9659      0.19785162
       3242.7656      0.15859582
       3243.5653     0.067863108
       3244.3650     0.091967877
       3245.1647      0.10050721
       3245.9644      0.10012052
       3246.7641      0.14810591
       3247.5637      0.14055351
       3248.3634      0.11877947
       3249.1631     0.069213548
       3249.9628     0.097086742
       3250.7625      0.16724311
       3251.5622     0.086767114
       3252.3619      0.15307443
       3253.1616      0.16721458
       3253.9613      0.13533020
       3254.7610      0.12773760
       3255.5606      0.22499601
       3256.3603      0.16173352
       3257.1600      0.19419360
       3257.9597      0.17006472
       3258.7594      0.15546739
       3259.5591      0.11681582
       3260.3588      0.18039546
       3261.1585      0.15779291
       3261.9582      0.18679354
       3262.7579      0.20320268
       3263.5575     0.071753121
       3264.3572     0.085644445
       3265.1569      0.11986205
       3265.9566     0.073015739
       3266.7563      0.12107494
       3267.5560     0.068079842
       3268.3557      0.14307684
       3269.1554      0.20344847
       3269.9551      0.17818205
       3270.7548      0.18659604
       3271.5544      0.14779911
       3272.3541      0.16353467
       3273.1538      0.17509695
       3273.9535      0.17305865
       3274.7532      0.16284602
       3275.5529      0.17487058
       3276.3526      0.21415797
       3277.1523      0.18891853
       3277.9520      0.15430857
       3278.7517      0.16937225
       3279.5513      0.12208532
       3280.3510      0.16809881
       3281.1507      0.18386164
       3281.9504      0.13271939
       3282.7501      0.18377782
       3283.5498      0.15818090
       3284.3495      0.17495205
       3285.1492      0.17231814
       3285.9489      0.17204418
       3286.7486      0.17223332
       3287.5482      0.17429936
       3288.3479      0.14175080
       3289.1476      0.17078721
       3289.9473      0.16725102
       3290.7470      0.20812846
       3291.5467      0.15904552
       3292.3464      0.12657815
       3293.1461      0.16520720
       3293.9458      0.16882100
       3294.7455      0.13448275
       3295.5452      0.17596238
       3296.3448      0.16492619
       3297.1445      0.14261190
       3297.9442      0.15629541
       3298.7439      0.17056706
       3299.5436      0.20791202
       3300.3433      0.17161106
       3301.1430      0.17614777
       3301.9427      0.17179375
       3302.7424      0.14420903
       3303.5421      0.14789075
       3304.3417      0.12913809
       3305.1414      0.12415114
       3305.9411      0.20071638
       3306.7408      0.20163801
       3307.5405      0.17091506
       3308.3402      0.18182450
       3309.1399      0.15473948
       3309.9396      0.23494400
       3310.7393      0.24198375
       3311.5390      0.19951255
       3312.3386      0.18037898
       3313.1383      0.20496455
       3313.9380      0.22671173
       3314.7377      0.17102363
       3315.5374      0.20034380
       3316.3371      0.18428472
       3317.1368      0.18291823
       3317.9365      0.19112701
       3318.7362      0.18204995
       3319.5359      0.21893407
       3320.3355      0.15766596
       3321.1352      0.18509181
       3321.9349      0.16505230
       3322.7346      0.15756875
       3323.5343      0.13213772
       3324.3340      0.20190534
       3325.1337      0.21803387
       3325.9334      0.18986099
       3326.7331      0.16221562
       3327.5328      0.21238700
       3328.3324      0.20004544
       3329.1321      0.16225244
       3329.9318      0.17426310
       3330.7315      0.18319380
       3331.5312      0.20325387
       3332.3309      0.23230885
       3333.1306      0.17384215
       3333.9303      0.22126958
       3334.7300      0.19697728
       3335.5297      0.13251675
       3336.3293      0.22045653
       3337.1290      0.13405433
       3337.9287      0.16176522
       3338.7284      0.22198888
       3339.5281      0.16707461
       3340.3278      0.19321631
       3341.1275      0.17405172
       3341.9272      0.15365063
       3342.7269      0.20465929
       3343.5266      0.22569763
       3344.3262      0.18990727
       3345.1259      0.20060805
       3345.9256      0.23174014
       3346.7253      0.21435518
       3347.5250      0.16413108
       3348.3247      0.19638924
       3349.1244      0.23429493
       3349.9241      0.28734563
       3350.7238      0.14321426
       3351.5235      0.12420380
       3352.3231      0.27152066
       3353.1228      0.16158949
       3353.9225      0.16326579
       3354.7222      0.19469833
       3355.5219      0.14914914
       3356.3216      0.15161867
       3357.1213      0.20687636
       3357.9210      0.20785831
       3358.7207      0.11987789
       3359.5204      0.15202294
       3360.3200      0.22035110
       3361.1197      0.20371517
       3361.9194      0.19481596
       3362.7191      0.17210004
       3363.5188      0.17636836
       3364.3185      0.17271542
       3365.1182      0.16190407
       3365.9179      0.15562262
       3366.7176      0.23667169
       3367.5173      0.17537840
       3368.3169      0.16074025
       3369.1166      0.20849709
       3369.9163      0.19162851
       3370.7160      0.18931440
       3371.5157      0.22255638
       3372.3154      0.14939042
       3373.1151      0.14228444
       3373.9148      0.19219651
       3374.7145      0.15190717
       3375.5142      0.19923255
       3376.3138      0.13693493
       3377.1135      0.18855219
       3377.9132      0.22037254
       3378.7129      0.14444658
       3379.5126      0.20465522
       3380.3123      0.21637304
       3381.1120      0.17128864
       3381.9117      0.19358472
       3382.7114      0.15335092
       3383.5111      0.16748724
       3384.3107      0.18776740
       3385.1104      0.18880283
       3385.9101      0.13082991
       3386.7098      0.17591264
       3387.5095      0.17657409
       3388.3092      0.14381988
       3389.1089      0.20598209
       3389.9086      0.17257281
       3390.7083      0.14358035
       3391.5080      0.17801970
       3392.3076      0.20577736
       3393.1073      0.20800574
       3393.9070      0.16597626
       3394.7067      0.16070493
       3395.5064      0.14995870
       3396.3061      0.16158647
       3397.1058      0.21814238
       3397.9055      0.22602464
       3398.7052      0.15267522
       3399.5049      0.17731152
       3400.3045      0.15462569
       3401.1042      0.24053842
       3401.9039      0.29144391
       3402.7036      0.14210131
       3403.5033      0.23757659
       3404.3030      0.14019713
       3405.1027      0.19748554
       3405.9024      0.24706731
       3406.7021      0.23316422
       3407.5018      0.22548624
       3408.3014      0.13862391
       3409.1011      0.15501148
       3409.9008      0.13070781
       3410.7005      0.17995312
       3411.5002      0.18965394
       3412.2999      0.19113546
       3413.0996      0.23432192
       3413.8993      0.15461620
       3414.6990      0.18683511
       3415.4987      0.17703246
       3416.2983      0.12033580
       3417.0980      0.21901606
       3417.8977      0.18934418
       3418.6974      0.20734930
       3419.4971      0.17156229
       3420.2968      0.12453918
       3421.0965      0.23602070
       3421.8962      0.19545242
       3422.6959      0.19581160
       3423.4956      0.18139221
       3424.2952      0.23437369
       3425.0949      0.15847812
       3425.8946      0.19875457
       3426.6943      0.20192686
       3427.4940      0.18383595
       3428.2937      0.17065061
       3429.0934      0.19087477
       3429.8931      0.14681808
       3430.6928      0.12279855
       3431.4925      0.23395906
       3432.2921      0.13235338
       3433.0918      0.21807663
       3433.8915      0.20602006
       3434.6912      0.29537691
       3435.4909      0.14948022
       3436.2906      0.27155468
       3437.0903      0.19186679
       3437.8900      0.23948319
       3438.6897      0.14332779
       3439.4894      0.23989695
       3440.2890      0.23902000
       3441.0887      0.24924555
       3441.8884      0.18004168
       3442.6881      0.19681508
       3443.4878      0.21167945
       3444.2875      0.21424018
       3445.0872      0.17443541
       3445.8869      0.18859811
       3446.6866      0.18037591
       3447.4863      0.22045273
       3448.2860      0.18236939
       3449.0856      0.17639088
       3449.8853      0.18399636
       3450.6850      0.24637748
       3451.4847      0.18620862
       3452.2844      0.17314401
       3453.0841      0.17195588
       3453.8838     0.065058432
       3454.6835      0.15560838
       3455.4832      0.18811378
       3456.2829     0.098917353
       3457.0825      0.18288535
       3457.8822      0.19236849
       3458.6819      0.20938432
       3459.4816      0.13250702
       3460.2813      0.26121678
       3461.0810      0.17449333
       3461.8807      0.24685712
       3462.6804      0.19839694
       3463.4801      0.20825594
       3464.2798      0.21082722
       3465.0794      0.13367774
       3465.8791      0.22619801
       3466.6788      0.17626738
       3467.4785      0.20241619
       3468.2782      0.25188968
       3469.0779      0.21496337
       3469.8776      0.19307319
       3470.6773      0.11055334
       3471.4770      0.21992118
       3472.2767      0.19121092
       3473.0763      0.13415936
       3473.8760      0.19086669
       3474.6757      0.17463669
       3475.4754      0.10527466
       3476.2751      0.18546052
       3477.0748      0.19589121
       3477.8745      0.19213876
       3478.6742      0.21810432
       3479.4739      0.18249795
       3480.2736      0.15276462
       3481.0732      0.27486427
       3481.8729      0.18322773
       3482.6726      0.24669363
       3483.4723      0.18870701
       3484.2720      0.19920387
       3485.0717      0.25268059
       3485.8714      0.19887251
       3486.6711      0.21786036
       3487.4708      0.17886610
       3488.2705      0.18496630
       3489.0701      0.18705701
       3489.8698      0.16837849
       3490.6695      0.19789484
       3491.4692      0.22200129
       3492.2689      0.22912108
       3493.0686      0.13584101
       3493.8683      0.19560400
       3494.6680      0.13756169
       3495.4677      0.18469674
       3496.2674      0.17200053
       3497.0670      0.26784527
       3497.8667      0.20473368
       3498.6664      0.17096290
       3499.4661      0.18443439
       3500.2658      0.23430682
       3501.0655      0.14606772
       3501.8652      0.24026643
       3502.6649      0.18378027
       3503.4646      0.14422327
       3504.2643      0.17855582
       3505.0639      0.18124397
       3505.8636      0.21386201
       3506.6633      0.16612973
       3507.4630      0.22690056
       3508.2627      0.12954265
       3509.0624      0.25760239
       3509.8621      0.17500092
       3510.6618      0.16175554
       3511.4615      0.21259247
       3512.2612      0.24115452
       3513.0608      0.26098811
       3513.8605      0.23379696
       3514.6602      0.20064330
       3515.4599      0.17526553
       3516.2596      0.22816087
       3517.0593      0.22537548
       3517.8590      0.25095868
       3518.6587      0.18275061
       3519.4584      0.21863761
       3520.2581      0.18930858
       3521.0577      0.20504070
       3521.8574      0.16876267
       3522.6571      0.21262197
       3523.4568      0.20656423
       3524.2565      0.25398142
       3525.0562      0.15628573
       3525.8559      0.15773870
       3526.6556      0.22369970
       3527.4553      0.25648028
       3528.2550      0.25797775
       3529.0546      0.21209764
       3529.8543      0.26544149
       3530.6540      0.21684730
       3531.4537      0.19847165
       3532.2534      0.12418425
       3533.0531      0.26886230
       3533.8528      0.24190979
       3534.6525      0.21106709
       3535.4522      0.18152303
       3536.2519      0.18188000
       3537.0515      0.17160595
       3537.8512      0.16886112
       3538.6509      0.28472761
       3539.4506      0.19830584
       3540.2503      0.20187395
       3541.0500      0.21878627
       3541.8497      0.19649260
       3542.6494      0.16358819
       3543.4491      0.15307130
       3544.2488      0.22118341
       3545.0484      0.18168104
       3545.8481      0.31209347
       3546.6478      0.24879896
       3547.4475      0.28547665
       3548.2472      0.21732203
       3549.0469      0.32599467
       3549.8466      0.25581672
       3550.6463      0.26389748
       3551.4460      0.23160808
       3552.2457      0.22642604
       3553.0453      0.28691082
       3553.8450      0.18793082
       3554.6447      0.21408969
       3555.4444      0.18738408
       3556.2441      0.21100571
       3557.0438      0.18426435
       3557.8435      0.21786053
       3558.6432      0.32986819
       3559.4429      0.29081032
       3560.2426      0.28468133
       3561.0422      0.26055602
       3561.8419      0.25110316
       3562.6416      0.21896913
       3563.4413      0.21426938
       3564.2410      0.24655530
       3565.0407      0.16782013
       3565.8404      0.25572386
       3566.6401      0.24584401
       3567.4398      0.17478267
       3568.2395      0.20283931
       3569.0391      0.20036156
       3569.8388      0.16290015
       3570.6385      0.25109675
       3571.4382      0.22143686
       3572.2379      0.23368238
       3573.0376      0.26617509
       3573.8373      0.14876153
       3574.6370      0.15469908
       3575.4367      0.18524224
       3576.2364      0.12774573
       3577.0360      0.24775015
       3577.8357      0.25696521
       3578.6354      0.20633184
       3579.4351      0.20358402
       3580.2348      0.23172537
       3581.0345      0.18798133
       3581.8342      0.18762025
       3582.6339      0.17526631
       3583.4336      0.18804909
       3584.2333      0.24086638
       3585.0329      0.18859818
       3585.8326      0.20092886
       3586.6323      0.21418207
       3587.4320      0.25111683
       3588.2317      0.23087153
       3589.0314      0.16164758
       3589.8311      0.20927408
       3590.6308      0.20016993
       3591.4305      0.16819603
       3592.2302      0.20206433
       3593.0298      0.16848857
       3593.8295      0.16750203
       3594.6292      0.19787396
       3595.4289      0.18801554
       3596.2286      0.24029162
       3597.0283      0.17195407
       3597.8280      0.14706044
       3598.6277      0.16018662
       3599.4274      0.21289953
       3600.2271      0.25751724
       3601.0268      0.22931341
       3601.8264      0.22137516
       3602.6261      0.22553651
       3603.4258      0.22345516
       3604.2255      0.19563611
       3605.0252      0.28854791
       3605.8249      0.16876033
       3606.6246      0.29377216
       3607.4243      0.24594821
       3608.2240      0.25274875
       3609.0237      0.20177269
       3609.8233      0.30400691
       3610.6230      0.12313938
       3611.4227      0.17551481
       3612.2224      0.20025923
       3613.0221      0.30062522
       3613.8218      0.21799439
       3614.6215      0.20428598
       3615.4212      0.15626627
       3616.2209      0.16058948
       3617.0206      0.23961379
       3617.8202      0.19299730
       3618.6199      0.18366350
       3619.4196      0.27092805
       3620.2193      0.22997024
       3621.0190      0.25095197
       3621.8187      0.16802300
       3622.6184      0.28104894
       3623.4181      0.26069732
       3624.2178      0.21936790
       3625.0175      0.16268394
       3625.8171      0.23308320
       3626.6168      0.20283370
       3627.4165      0.25485113
       3628.2162      0.30630327
       3629.0159      0.26664052
       3629.8156      0.29829934
       3630.6153      0.22415498
       3631.4150      0.24791610
       3632.2147      0.28310789
       3633.0144      0.24300623
       3633.8140      0.32826108
       3634.6137      0.17708841
       3635.4134      0.25015134
       3636.2131      0.28150235
       3637.0128      0.24935367
       3637.8125      0.23687388
       3638.6122      0.23009406
       3639.4119      0.15615556
       3640.2116      0.21826129
       3641.0113      0.19111029
       3641.8109      0.23891664
       3642.6106      0.26355692
       3643.4103      0.22473963
       3644.2100      0.26261307
       3645.0097      0.24159774
       3645.8094      0.26749460
       3646.6091      0.26289743
       3647.4088      0.20835620
       3648.2085      0.25179675
       3649.0082      0.22887756
       3649.8078      0.23917387
       3650.6075      0.26739103
       3651.4072      0.25800914
       3652.2069      0.25340911
       3653.0066      0.24227098
       3653.8063      0.24216757
       3654.6060      0.20081825
       3655.4057      0.24988125
       3656.2054      0.27682051
       3657.0051      0.20260804
       3657.8047      0.21469707
       3658.6044      0.27024807
       3659.4041      0.26143446
       3660.2038      0.23092876
       3661.0035      0.28715573
       3661.8032      0.25942010
       3662.6029      0.24115033
       3663.4026      0.30128272
       3664.2023      0.27752316
       3665.0020      0.29194463
       3665.8016      0.25933618
       3666.6013      0.24306270
       3667.4010      0.27858709
       3668.2007      0.33082867
       3669.0004      0.26100588
       3669.8001      0.25863806
       3670.5998      0.28134486
       3671.3995      0.25522275
       3672.1992      0.27041655
       3672.9989      0.34692672
       3673.7985      0.25404036
       3674.5982      0.26192405
       3675.3979      0.26682879
       3676.1976      0.28880349
       3676.9973      0.22123162
       3677.7970      0.28373085
       3678.5967      0.28779925
       3679.3964      0.29429099
       3680.1961      0.23595422
       3680.9958      0.30958842
       3681.7954      0.27502654
       3682.5951      0.25527658
       3683.3948      0.24384810
       3684.1945      0.24439279
       3684.9942      0.25073929
       3685.7939      0.18419937
       3686.5936      0.25137916
       3687.3933      0.26768680
       3688.1930      0.26302242
       3688.9927      0.18877839
       3689.7923      0.28544171
       3690.5920      0.23087154
       3691.3917      0.26620335
       3692.1914      0.20363713
       3692.9911      0.27968584
       3693.7908      0.19135743
       3694.5905      0.21662802
       3695.3902      0.24460471
       3696.1899      0.24290323
       3696.9896      0.25301089
       3697.7892      0.30089671
       3698.5889      0.27456112
       3699.3886      0.26960692
       3700.1883      0.32030564
       3700.9880      0.23374620
       3701.7877      0.26238849
       3702.5874      0.29205905
       3703.3871      0.20965662
       3704.1868      0.30093858
       3704.9865      0.29516112
       3705.7861      0.32843479
       3706.5858      0.29350492
       3707.3855      0.25428559
       3708.1852      0.30511964
       3708.9849      0.32519232
       3709.7846      0.23937854
       3710.5843      0.21366695
       3711.3840      0.25085947
       3712.1837      0.24618551
       3712.9834      0.21765105
       3713.7830      0.29371003
       3714.5827      0.22583287
       3715.3824      0.29000449
       3716.1821      0.16194311
       3716.9818      0.34327730
       3717.7815      0.30537628
       3718.5812      0.38963450
       3719.3809      0.29564723
       3720.1806      0.23700186
       3720.9803      0.30289500
       3721.7799      0.38238341
       3722.5796      0.30202070
       3723.3793      0.29946212
       3724.1790      0.24898421
       3724.9787      0.22692610
       3725.7784      0.23391689
       3726.5781      0.20442799
       3727.3778      0.23345266
       3728.1775      0.27504241
       3728.9772      0.31037507
       3729.7768      0.37560886
       3730.5765      0.35580798
       3731.3762      0.38293595
       3732.1759      0.45017778
       3732.9756      0.38887183
       3733.7753      0.32745150
       3734.5750      0.40915902
       3735.3747      0.26396589
       3736.1744      0.29436669
       3736.9741      0.25107320
       3737.7737      0.26082918
       3738.5734      0.17673317
       3739.3731      0.21394529
       3740.1728      0.26385117
       3740.9725      0.18419916
       3741.7722      0.26313070
       3742.5719      0.24965778
       3743.3716      0.26696289
       3744.1713      0.28917152
       3744.9710      0.24497711
       3745.7706      0.28083298
       3746.5703      0.31841756
       3747.3700      0.32225839
       3748.1697      0.17598293
       3748.9694      0.32981127
       3749.7691      0.37398520
       3750.5688      0.25381165
       3751.3685      0.18678193
       3752.1682      0.23706332
       3752.9679      0.22896393
       3753.7676      0.22036382
       3754.5672      0.20740433
       3755.3669      0.23946112
       3756.1666      0.28592824
       3756.9663      0.27133277
       3757.7660      0.31318468
       3758.5657      0.33702414
       3759.3654      0.28390412
       3760.1651      0.27664827
       3760.9648      0.29641651
       3761.7645      0.36078924
       3762.5641      0.27732752
       3763.3638      0.30670958
       3764.1635      0.30396221
       3764.9632      0.35809177
       3765.7629      0.27310597
       3766.5626      0.27677137
       3767.3623      0.30619122
       3768.1620      0.30746173
       3768.9617      0.24382683
       3769.7614      0.23164051
       3770.5610      0.32781855
       3771.3607      0.25442815
       3772.1604      0.30200875
       3772.9601      0.25186333
       3773.7598      0.26023590
       3774.5595      0.30076434
       3775.3592      0.27436462
       3776.1589      0.34328965
       3776.9586      0.32154983
       3777.7583      0.37057849
       3778.5579      0.35857716
       3779.3576      0.28658290
       3780.1573      0.25561334
       3780.9570      0.31339619
       3781.7567      0.35154985
       3782.5564      0.40370176
       3783.3561      0.39225556
       3784.1558      0.45537990
       3784.9555      0.33985469
       3785.7552      0.43690482
       3786.5548      0.45238090
       3787.3545      0.40982820
       3788.1542      0.33571944
       3788.9539      0.42270586
       3789.7536      0.36342449
       3790.5533      0.29401517
       3791.3530      0.32629663
       3792.1527      0.18352950
       3792.9524      0.31294266
       3793.7521      0.33087550
       3794.5517      0.31340828
       3795.3514      0.29064843
       3796.1511      0.30347773
       3796.9508      0.29819026
       3797.7505      0.27690454
       3798.5502      0.21118067
       3799.3499      0.17240665
       3800.1496      0.23871241
       3800.9493      0.23791751
       3801.7490      0.33218430
       3802.5486      0.19478993
       3803.3483      0.29493486
       3804.1480      0.29816913
       3804.9477      0.24543980
       3805.7474      0.28726680
       3806.5471      0.38234933
       3807.3468      0.32291809
       3808.1465      0.35361323
       3808.9462      0.30562241
       3809.7459      0.21530164
       3810.5455      0.34157608
       3811.3452      0.31640183
       3812.1449      0.44400576
       3812.9446      0.37607462
       3813.7443      0.34539433
       3814.5440      0.35010102
       3815.3437      0.34562059
       3816.1434      0.28592643
       3816.9431      0.28776472
       3817.7428      0.31500200
       3818.5424      0.28562231
       3819.3421      0.31557395
       3820.1418      0.28723142
       3820.9415      0.33280850
       3821.7412      0.29777108
       3822.5409      0.29908667
       3823.3406      0.23943689
       3824.1403      0.33467695
       3824.9400      0.28684710
       3825.7397      0.25158035
       3826.5393      0.22756727
       3827.3390      0.28562307
       3828.1387      0.27957310
       3828.9384      0.29360532
       3829.7381      0.34787481
       3830.5378      0.19874060
       3831.3375      0.16573550
       3832.1372      0.21927635
       3832.9369      0.21738826
       3833.7366      0.17898894
       3834.5362      0.19426746
       3835.3359      0.19230259
       3836.1356      0.21526583
       3836.9353      0.21870889
       3837.7350      0.24288682
       3838.5347      0.24220014
       3839.3344      0.23590215
       3840.1341      0.22678286
       3840.9338      0.22777555
       3841.7335      0.18443041
       3842.5331      0.33750758
       3843.3328      0.24655471
       3844.1325      0.28635639
       3844.9322      0.39142572
       3845.7319      0.29874716
       3846.5316      0.28051996
       3847.3313      0.31024874
       3848.1310      0.37798416
       3848.9307      0.29331358
       3849.7304      0.33111645
       3850.5300      0.33484181
       3851.3297      0.32486341
       3852.1294      0.25577721
       3852.9291      0.33149996
       3853.7288      0.33380905
       3854.5285      0.32566761
       3855.3282      0.30874975
       3856.1279      0.41092155
       3856.9276      0.28374731
       3857.7273      0.31902961
       3858.5269      0.32700113
       3859.3266      0.33621402
       3860.1263      0.31780695
       3860.9260      0.31356011
       3861.7257      0.33406009
       3862.5254      0.29271358
       3863.3251      0.36304976
       3864.1248      0.31290668
       3864.9245      0.34876772
       3865.7242      0.26009229
       3866.5238      0.34303472
       3867.3235      0.30846437
       3868.1232      0.34767055
       3868.9229      0.33035506
       3869.7226      0.37722136
       3870.5223      0.37714945
       3871.3220      0.37432568
       3872.1217      0.36776782
       3872.9214      0.29677766
       3873.7211      0.30447482
       3874.5207      0.29071219
       3875.3204      0.21734947
       3876.1201      0.27682270
       3876.9198      0.24646516
       3877.7195      0.33949361
       3878.5192      0.28406179
       3879.3189      0.27990421
       3880.1186      0.30543327
       3880.9183      0.34150606
       3881.7180      0.33244430
       3882.5176      0.23199082
       3883.3173      0.30776364
       3884.1170      0.30353756
       3884.9167      0.23814577
       3885.7164      0.27568586
       3886.5161      0.26699385
       3887.3158      0.27549674
       3888.1155      0.26108174
       3888.9152      0.30046158
       3889.7149      0.31154290
       3890.5145      0.27042843
       3891.3142      0.28053093
       3892.1139      0.32659084
       3892.9136      0.25939941
       3893.7133      0.28008921
       3894.5130      0.42610252
       3895.3127      0.35294140
       3896.1124      0.36007095
       3896.9121      0.33302796
       3897.7118      0.28660097
       3898.5114      0.27859719
       3899.3111      0.34166414
       3900.1108      0.35072644
       3900.9105      0.40222301
       3901.7102      0.36777302
       3902.5099      0.40898344
       3903.3096      0.33155725
       3904.1093      0.30558903
       3904.9090      0.34195626
       3905.7087      0.37633683
       3906.5083      0.31310436
       3907.3080      0.36880606
       3908.1077      0.37346612
       3908.9074      0.43948129
       3909.7071      0.43083846
       3910.5068      0.36410219
       3911.3065      0.43021352
       3912.1062      0.41180785
       3912.9059      0.38577496
       3913.7056      0.40083620
       3914.5053      0.40423786
       3915.3049      0.47885080
       3916.1046      0.41165908
       3916.9043      0.38317179
       3917.7040      0.39004776
       3918.5037      0.25901554
       3919.3034      0.39962333
       3920.1031      0.36566177
       3920.9028      0.30309409
       3921.7025      0.34418168
       3922.5022      0.33911962
       3923.3018      0.33286613
       3924.1015      0.33928169
       3924.9012      0.33123266
       3925.7009      0.29122818
       3926.5006      0.26782438
       3927.3003      0.29296763
       3928.1000      0.21318847
       3928.8997      0.16424748
       3929.6994      0.17584328
       3930.4991      0.15088655
       3931.2987      0.14119217
       3932.0984      0.18489389
       3932.8981      0.16479998
       3933.6978      0.15023510
       3934.4975      0.18764174
       3935.2972      0.22114363
       3936.0969      0.15080005
       3936.8966      0.24588626
       3937.6963      0.27545979
       3938.4960      0.23545263
       3939.2956      0.38216886
       3940.0953      0.32486257
       3940.8950      0.31301813
       3941.6947      0.35567053
       3942.4944      0.30888466
       3943.2941      0.27425671
       3944.0938      0.31599924
       3944.8935      0.45033739
       3945.6932      0.38801547
       3946.4929      0.41952147
       3947.2925      0.36921769
       3948.0922      0.35679525
       3948.8919      0.36418455
       3949.6916      0.36271527
       3950.4913      0.39677855
       3951.2910      0.43554850
       3952.0907      0.32147658
       3952.8904      0.40735759
       3953.6901      0.38579760
       3954.4898      0.32952352
       3955.2894      0.30839487
       3956.0891      0.36299376
       3956.8888      0.36346056
       3957.6885      0.32122452
       3958.4882      0.32506095
       3959.2879      0.29939301
       3960.0876      0.22986971
       3960.8873      0.25645146
       3961.6870      0.26760593
       3962.4867      0.22644366
       3963.2863      0.24720465
       3964.0860      0.12925567
       3964.8857     0.083102374
       3965.6854      0.16325380
       3966.4851      0.20486135
       3967.2848      0.20587945
       3968.0845      0.19753671
       3968.8842      0.15522012
       3969.6839      0.22592161
       3970.4836      0.20584032
       3971.2832      0.24728202
       3972.0829      0.32584195
       3972.8826      0.36918169
       3973.6823      0.22924371
       3974.4820      0.36614492
       3975.2817      0.27682835
       3976.0814      0.39470035
       3976.8811      0.38480407
       3977.6808      0.45302138
       3978.4805      0.39805898
       3979.2801      0.39363298
       3980.0798      0.45517505
       3980.8795      0.41011255
       3981.6792      0.41782010
       3982.4789      0.43190917
       3983.2786      0.45690524
       3984.0783      0.44319891
       3984.8780      0.46699668
       3985.6777      0.43678608
       3986.4774      0.36075243
       3987.2770      0.42218695
       3988.0767      0.39929277
       3988.8764      0.47527765
       3989.6761      0.49114609
       3990.4758      0.45319927
       3991.2755      0.40714237
       3992.0752      0.47437001
       3992.8749      0.49014937
       3993.6746      0.43595718
       3994.4743      0.46979805
       3995.2739      0.43901995
       3996.0736      0.46134378
       3996.8733      0.45276656
       3997.6730      0.46296179
       3998.4727      0.38276539
       3999.2724      0.51511527
       4000.0721      0.43910887
       4000.8718      0.47497758
       4001.6715      0.47984939
       4002.4712      0.54526115
       4003.2708      0.46123291
       4004.0705      0.44283489
       4004.8702      0.46688028
       4005.6699      0.49570543
       4006.4696      0.48108745
       4007.2693      0.48746067
       4008.0690      0.44254193
       4008.8687      0.50653350
       4009.6684      0.51767244
       4010.4681      0.49565214
       4011.2677      0.52185519
       4012.0674      0.49481742
       4012.8671      0.51030909
       4013.6668      0.51678081
       4014.4665      0.45827299
       4015.2662      0.48839696
       4016.0659      0.44762783
       4016.8656      0.45271390
       4017.6653      0.60540303
       4018.4650      0.48215778
       4019.2646      0.49645860
       4020.0643      0.46042007
       4020.8640      0.52516505
       4021.6637      0.63086956
       4022.4634      0.54556014
       4023.2631      0.48680607
       4024.0628      0.49920589
       4024.8625      0.46453106
       4025.6622      0.55253310
       4026.4619      0.41303359
       4027.2615      0.39100862
       4028.0612      0.33348943
       4028.8609      0.44334715
       4029.6606      0.41566186
       4030.4603      0.47737915
       4031.2600      0.49852071
       4032.0597      0.46877574
       4032.8594      0.47770823
       4033.6591      0.51725649
       4034.4588      0.49288466
       4035.2584      0.46670204
       4036.0581      0.47013377
       4036.8578      0.43550788
       4037.6575      0.43501055
       4038.4572      0.43505058
       4039.2569      0.41248744
       4040.0566      0.48006135
       4040.8563      0.37830945
       4041.6560      0.42263045
       4042.4557      0.49994569
       4043.2553      0.48533628
       4044.0550      0.55117335
       4044.8547      0.48935534
       4045.6544      0.44936833
       4046.4541      0.49906332
       4047.2538      0.46603185
       4048.0535      0.48763995
       4048.8532      0.37694122
       4049.6529      0.42626349
       4050.4526      0.41261631
       4051.2522      0.41540641
       4052.0519      0.50047427
       4052.8516      0.43634493
       4053.6513      0.42291961
       4054.4510      0.38978778
       4055.2507      0.44198248
       4056.0504      0.40578502
       4056.8501      0.41004444
       4057.6498      0.30505424
       4058.4495      0.43899338
       4059.2491      0.46952365
       4748.2141       2.2395620
       4749.0893       1.9769445
       4749.9645       1.5578237
       4750.8396       1.7854938
       4751.7148       1.3838537
       4752.5900       1.2609276
       4753.4652       1.5284891
       4754.3403       1.4094970
       4755.2155       1.3169291
       4756.0907       1.1804797
       4756.9659       1.2741942
       4757.8411       1.2332872
       4758.7162       1.7267903
       4759.5914       1.7458941
       4760.4666       1.9714921
       4761.3418       1.8001285
       4762.2169       1.9113003
       4763.0921       1.8335669
       4763.9673       1.6788024
       4764.8425       2.1284751
       4765.7176       1.6910518
       4766.5928       1.6276119
       4767.4680       1.3226050
       4768.3432       1.4245445
       4769.2184       1.4288820
       4770.0935       1.4689516
       4770.9687       2.0586199
       4771.8439       2.1648887
       4772.7191       1.3770379
       4773.5942       1.2229015
       4774.4694       1.4259094
       4775.3446       1.5611049
       4776.2198       1.6621643
       4777.0949       1.3951421
       4777.9701       1.5328245
       4778.8453       1.7515889
       4779.7205       1.6684018
       4780.5957       1.6917418
       4781.4708       1.4429430
       4782.3460       1.7090602
       4783.2212       1.4165496
       4784.0964       1.6383118
       4784.9715       1.7793887
       4785.8467       1.4663727
       4786.7219       1.8666280
       4787.5971       1.7929805
       4788.4722       1.6236003
       4789.3474       1.7079166
       4790.2226       1.6958128
       4791.0978       1.7079484
       4791.9730       1.7005282
       4792.8481       1.8050442
       4793.7233       1.6574654
       4794.5985       1.5238544
       4795.4737       1.8944471
       4796.3488       1.7062944
       4797.2240       1.5794369
       4798.0992       1.4936013
       4798.9744       1.5687082
       4799.8495       1.6565814
       4800.7247       1.6440949
       4801.5999       1.5250969
       4802.4751       1.6615489
       4803.3503       1.7248521
       4804.2254       1.6653885
       4805.1006       1.6249384
       4805.9758       1.9158819
       4806.8510       1.9424619
       4807.7261       1.6012172
       4808.6013       2.0667020
       4809.4765       1.6212911
       4810.3517       2.0161878
       4811.2269       1.7273501
       4812.1020       1.7739255
       4812.9772       1.8151727
       4813.8524       1.8155130
       4814.7276       1.6092027
       4815.6027       1.6809208
       4816.4779       1.7764909
       4817.3531       1.8133003
       4818.2283       1.6653171
       4819.1034       1.9384606
       4819.9786       1.6576760
       4820.8538       1.6818750
       4821.7290       1.4809187
       4822.6042       1.6635551
       4823.4793       1.6136663
       4824.3545       1.5943846
       4825.2297       1.6912552
       4826.1049       1.3731920
       4826.9800       1.5586890
       4827.8552       1.7450509
       4828.7304       1.6186011
       4829.6056       1.6080187
       4830.4807       1.5318018
       4831.3559       1.5863214
       4832.2311       2.0124205
       4833.1063       1.6417942
       4833.9815       1.6687138
       4834.8566       1.8276452
       4835.7318       1.7464447
       4836.6070       1.4757234
       4837.4822       1.5558519
       4838.3573       1.5715739
       4839.2325       1.5743028
       4840.1077       1.7761953
       4840.9829       1.6830450
       4841.8580       1.8544016
       4842.7332       1.7798563
       4843.6084       1.7419104
       4844.4836       1.6465877
       4845.3588       1.8406639
       4846.2339       1.5743024
       4847.1091       1.4585047
       4847.9843       1.5262758
       4848.8595       1.4040700
       4849.7346       1.6250987
       4850.6098       1.4800639
       4851.4850       1.6525279
       4852.3602       1.4513936
       4853.2354       1.6439195
       4854.1105       1.5043034
       4854.9857       1.6674461
       4855.8609       1.6068671
       4856.7361       1.5688355
       4857.6112       1.2651055
       4858.4864       1.2567014
       4859.3616       1.5159386
       4860.2368       1.3654060
       4861.1119       1.3530340
       4861.9871       1.3552888
       4862.8623       1.4954245
       4863.7375       1.5595848
       4864.6127       1.2686551
       4865.4878       1.7308777
       4866.3630       1.3117906
       4867.2382       1.3925292
       4868.1134       1.1920999
       4868.9885       1.4632177
       4869.8637       1.4445872
       4870.7389       1.3638151
       4871.6141       1.3914348
       4872.4892       1.5232127
       4873.3644       1.5493171
       4874.2396       1.4950743
       4875.1148       1.4316540
       4875.9900       1.6924137
       4876.8651       1.7149688
       4877.7403       1.6128633
       4878.6155       1.6534619
       4879.4907       1.6068820
       4880.3658       1.6599106
       4881.2410       1.9567020
       4882.1162       1.6038959
       4882.9914       1.6491372
       4883.8665       1.5915678
       4884.7417       1.6189694
       4885.6169       1.6776368
       4886.4921       1.4947124
       4887.3673       1.3560080
       4888.2424       1.4959944
       4889.1176       1.6817162
       4889.9928       1.8223167
       4890.8680       1.7035466
       4891.7431       1.8053643
       4892.6183       1.8193787
       4893.4935       1.4546628
       4894.3687       1.6069565
       4895.2438       1.7928235
       4896.1190       1.7369202
       4896.9942       1.6494720
       4897.8694       1.7109758
       4898.7446       1.6732116
       4899.6197       1.7018272
       4900.4949       1.7270440
       4901.3701       1.7988449
       4902.2453       1.6447758
       4903.1204       1.5455719
       4903.9956       1.5068125
       4904.8708       1.6546817
       4905.7460       1.6870604
       4906.6212       1.6266225
       4907.4963       1.6734825
       4908.3715       1.8138254
       4909.2467       1.5524395
       4910.1219       1.5025677
       4910.9970       1.6498100
       4911.8722       1.8214143
       4912.7474       1.5544534
       4913.6226       1.5080381
       4914.4977       1.5038473
       4915.3729       1.5964277
       4916.2481       1.5531797
       4917.1233       1.7171381
       4917.9985       1.3311473
       4918.8736       1.3852479
       4919.7488       1.5205996
       4920.6240       1.5486583
       4921.4992       1.7132980
       4922.3743       1.5041280
       4923.2495       1.7102912
       4924.1247       1.5082770
       4924.9999       1.6464412
       4925.8750       1.7230342
       4926.7502       1.6889129
       4927.6254       1.6309371
       4928.5006       1.7620565
       4929.3758       1.5857396
       4930.2509       1.5296634
       4931.1261       1.6091091
       4932.0013       1.4679073
       4932.8765       1.6672093
       4933.7516       1.5817089
       4934.6268       1.5663352
       4935.5020       1.7045110
       4936.3772       1.6107824
       4937.2523       1.6840787
       4938.1275       1.7486779
       4939.0027       1.7386332
       4939.8779       1.8122142
       4940.7531       1.8238358
       4941.6282       1.6456478
       4942.5034       1.6493560
       4943.3786       1.7303666
       4944.2538       1.6541244
       4945.1289       1.8833032
       4946.0041       1.6419068
       4946.8793       1.7441231
       4947.7545       1.6747290
       4948.6296       1.7034333
       4949.5048       1.8229180
       4950.3800       1.8655617
       4951.2552       1.7059977
       4952.1304       1.7375742
       4953.0055       1.8233160
       4953.8807       1.6721769
       4954.7559       1.7141141
       4955.6311       1.5028362
       4956.5062       1.6010679
       4957.3814       1.6513415
       4958.2566       1.5843737
       4959.1318       1.7831420
       4960.0070       1.4241428
       4960.8821       1.6863840
       4961.7573       1.6288532
       4962.6325       1.6381580
       4963.5077       1.6205933
       4964.3828       1.5531602
       4965.2580       1.4911905
       4966.1332       1.6680569
       4967.0084       1.4013310
       4967.8835       1.3472167
       4968.7587       1.6346820
       4969.6339       1.5861318
       4970.5091       1.3192484
       4971.3843       1.8576300
       4972.2594       1.6097758
       4973.1346       1.5890281
       4974.0098       1.5890075
       4974.8850       1.5564317
       4975.7601       1.6107927
       4976.6353       1.5300597
       4977.5105       1.7022347
       4978.3857       1.5331363
       4979.2608       1.7167201
       4980.1360       1.4078815
       4981.0112       1.6896143
       4981.8864       1.4265394
       4982.7616       1.4517462
       4983.6367       1.5561177
       4984.5119       1.7559973
       4985.3871       1.5751650
       4986.2623       1.5274496
       4987.1374       1.5626951
       4988.0126       1.4033926
       4988.8878       1.4406404
       4989.7630       1.3372469
       4990.6381       1.5247169
       4991.5133       1.6330713
       4992.3885       1.6826735
       4993.2637       1.6871589
       4994.1389       1.6914431
       4995.0140       1.5293086
       4995.8892       1.5419913
       4996.7644       1.4714339
       4997.6396       1.4082814
       4998.5147       1.5428612
       4999.3899       1.4539276
       5000.2651       1.5562338
       5001.1403       1.8058387
       5002.0155       1.5011911
       5002.8906       1.5064850
       5003.7658       1.4773024
       5004.6410       1.5233852
       5005.5162       1.7248127
       5006.3913       1.5775289
       5007.2665       1.6746081
       5008.1417       1.7143766
       5009.0169       1.6959510
       5009.8920       1.5425431
       5010.7672       1.5880506
       5011.6424       1.5470746
       5012.5176       1.4197694
       5013.3928       1.3300521
       5014.2679       1.5335330
       5015.1431       1.6227227
       5016.0183       1.3820659
       5016.8935       1.5217355
       5017.7686       1.4753933
       5018.6438       1.3117455
       5019.5190       1.8179843
       5020.3942       1.3165995
       5021.2693       1.4734567
       5022.1445       1.2687860
       5023.0197       1.5221233
       5023.8949       1.4768733
       5024.7701       1.7878216
       5025.6452       1.5278554
       5026.5204       1.6530323
       5027.3956       1.5950353
       5028.2708       1.3904723
       5029.1459       1.3640813
       5030.0211       1.5942914
       5030.8963       1.7561776
       5031.7715       1.6029815
       5032.6466       1.5591690
       5033.5218       1.6390219
       5034.3970       1.6193342
       5035.2722       1.7391481
       5036.1474       1.6024415
       5037.0225       1.4572228
       5037.8977       1.5503954
       5038.7729       1.5633263
       5039.6481       1.4842441
       5040.5232       1.6056622
       5041.3984       1.4678524
       5042.2736       1.3477261
       5043.1488       1.1754995
       5044.0239       1.4553744
       5044.8991       1.1527166
       5045.7743       1.4209068
       5046.6495       1.4351273
       5047.5247       1.3029577
       5048.3998       1.2851465
       5049.2750       1.1365447
       5050.1502       1.0542744
       5051.0254       1.2038180
       5051.9005       1.0589597
       5052.7757       1.5837732
       5053.6509       1.3169150
       5054.5261       1.5798184
       5055.4013       1.4747956
       5056.2764       1.6002889
       5057.1516       1.3929456
       5058.0268       1.2456336
       5058.9020       1.4895063
       5059.7771       1.2663056
       5060.6523       1.5053911
       5061.5275       1.4363866
       5062.4027       1.3745059
       5063.2778       1.4787527
       5064.1530       1.3782817
       5065.0282       1.3154416
       5065.9034       1.1900757
       5066.7786       1.6150642
       5067.6537       1.3619308
       5068.5289       1.4500655
       5069.4041       1.3606184
       5070.2793       1.4009227
       5071.1544       1.4939115
       5072.0296       1.4297601
       5072.9048       1.4253225
       5073.7800       1.5570646
       5074.6551       1.4419069
       5075.5303       1.5062594
       5076.4055       1.5993841
       5077.2807       1.4075092
       5078.1559       1.5690974
       5079.0310       1.4917622
       5079.9062       1.5681051
       5080.7814       1.5244251
       5081.6566       1.4425065
       5082.5317       1.5096185
       5083.4069       1.4914604
       5084.2821       1.4139154
       5085.1573       1.7414256
       5086.0324       1.5235247
       5086.9076       1.5964763
       5087.7828       1.5371067
       5088.6580       1.6011896
       5089.5332       1.5227079
       5090.4083       1.4832618
       5091.2835       1.6569819
       5092.1587       1.7044178
       5093.0339       1.6544560
       5093.9090       1.7564195
       5094.7842       1.5273069
       5095.6594       1.4598157
       5096.5346       1.6385337
       5097.4098       1.6385282
       5098.2849       1.6926439
       5099.1601       1.6381595
       5100.0353       1.4852225
       5100.9105       1.6968485
       5101.7856       1.3670664
       5102.6608       1.3609425
       5103.5360       1.4271050
       5104.4112       1.4595215
       5105.2863       1.4477472
       5106.1615       1.5978401
       5107.0367       1.5750920
       5107.9119       1.6049086
       5108.7871       1.6888677
       5109.6622       1.5966006
       5110.5374       1.4387740
       5111.4126       1.3644857
       5112.2878       1.4126591
       5113.1629       1.7809336
       5114.0381       1.6559447
       5114.9133       1.6577689
       5115.7885       1.6054176
       5116.6636       1.5497868
       5117.5388       1.5887450
       5118.4140       1.6705869
       5119.2892       1.6758813
       5120.1644       1.7634444
       5121.0395       1.6583792
       5121.9147       1.6151228
       5122.7899       1.7344639
       5123.6651       1.5841713
       5124.5402       1.6861817
       5125.4154       1.4452883
       5126.2906       1.6374407
       5127.1658       1.5202171
       5128.0409       1.4665203
       5128.9161       1.6209058
       5129.7913       1.6932719
       5130.6665       1.5231150
       5131.5417       1.4686229
       5132.4168       1.4250301
       5133.2920       1.1717982
       5134.1672       1.5944276
       5135.0424       1.2224233
       5135.9175       1.6135105
       5136.7927       1.7203173
       5137.6679       1.5961081
       5138.5431       1.5036361
       5139.4182       1.5005074
       5140.2934       1.5821270
       5141.1686       1.5189519
       5142.0438       1.4158827
       5142.9190       1.6121481
       5143.7941       1.4660629
       5144.6693       1.4753403
       5145.5445       1.6404386
       5146.4197       1.4963161
       5147.2948       1.6331350
       5148.1700       1.6617625
       5149.0452       1.6637506
       5149.9204       1.7170307
       5150.7956       1.5256926
       5151.6707       1.5512606
       5152.5459       1.3240283
       5153.4211       1.5240487
       5154.2963       1.4112506
       5155.1714       1.5792039
       5156.0466       1.5072335
       5156.9218       1.6265113
       5157.7970       1.3705686
       5158.6721       1.2509372
       5159.5473       1.6724136
       5160.4225       1.7756288
       5161.2977       1.7328421
       5162.1729       1.6587920
       5163.0480       1.7241423
       5163.9232       1.6407175
       5164.7984       1.8445464
       5165.6736       1.6710541
       5166.5487       1.6800269
       5167.4239       1.4722303
       5168.2991       1.7075513
       5169.1743       1.4567367
       5170.0494       1.2706690
       5170.9246       1.5763499
       5171.7998       1.3568361
       5172.6750       1.2206306
       5173.5502       1.1834347
       5174.4253       1.2691576
       5175.3005       1.5447962
       5176.1757       1.3584886
       5177.0509       1.1108527
       5177.9260       1.2391773
       5178.8012       1.4159788
       5179.6764       1.4171934
       5180.5516       1.5611492
       5181.4267       1.6195376
       5182.3019       1.7308809
       5183.1771       1.5477421
       5184.0523       1.4912820
       5184.9275       1.5804109
       5185.8026       1.6380148
       5186.6778       1.5007081
       5187.5530       1.3845572
       5188.4282       1.4543081
       5189.3033       1.4812352
       5190.1785       1.3941249
       5191.0537       1.3580234
       5191.9289       1.5971524
       5192.8041       1.6479698
       5193.6792       1.7043557
       5194.5544       1.7152363
       5195.4296       1.6685090
       5196.3048       1.5891981
       5197.1799       1.6306794
       5198.0551       1.5520139
       5198.9303       1.6344054
       5199.8055       1.4804166
       5200.6806       1.5267208
       5201.5558       1.5528871
       5202.4310       2.0493099
       5203.3062       1.7960369
       5204.1814       1.8272123
       5205.0565       1.6675582
       5205.9317       1.7232953
       5206.8069       1.7913616
       5207.6821       1.7652144
       5208.5572       1.7652844
       5209.4324       1.8277014
       5210.3076       1.7119744
       5211.1828       1.5002209
       5212.0579       1.6759528
       5212.9331       1.5396823
       5213.8083       1.5960602
       5214.6835       1.7110886
       5215.5587       1.5164056
       5216.4338       1.6606749
       5217.3090       1.6162985
       5218.1842       1.7432212
       5219.0594       1.7611347
       5219.9345       1.6624517
       5220.8097       1.7640946
       5221.6849       1.6273961
       5222.5601       1.7992493
       5223.4352       1.7179483
       5224.3104       1.7101608
       5225.1856       1.5727712
       5226.0608       1.8635146
       5226.9360       1.7912063
       5227.8111       1.7170832
       5228.6863       1.8765169
       5229.5615       1.7604492
       5230.4367       1.6535264
       5231.3118       1.6634935
       5232.1870       1.4877611
       5233.0622       1.7960967
       5233.9374       1.7850941
       5234.8125       1.6395257
       5235.6877       1.9376415
       5236.5629       1.6960365
       5237.4381       1.6559341
       5238.3133       1.7541101
       5239.1884       1.7587619
       5240.0636       1.7912929
       5240.9388       1.6739447
       5241.8140       1.7242705
       5242.6891       1.5833030
       5243.5643       2.0270406
       5244.4395       1.6842544
       5245.3147       1.9423994
       5246.1899       1.6697200
       5247.0650       1.8810030
       5247.9402       1.8282484
       5248.8154       1.9733535
       5249.6906       1.8642061
       5250.5657       1.8794215
       5251.4409       1.8041536
       5252.3161       1.7312594
       5253.1913       1.6251786
       5254.0664       1.7812052
       5254.9416       1.8448960
       5255.8168       1.8181696
       5256.6920       1.6718527
       5257.5672       1.7473804
       5258.4423       1.7347378
       5259.3175       1.8064446
       5260.1927       1.7429128
       5261.0679       1.7278764
       5261.9430       1.7602983
       5262.8182       1.7342737
       5263.6934       1.7985735
       5264.5686       1.8244675
       5265.4437       1.7366015
       5266.3189       1.7449678
       5267.1941       1.8617150
       5268.0693       1.7499022
       5268.9445       1.6171100
       5269.8196       1.5872793
       5270.6948       1.5271705
       5271.5700       1.3025163
       5272.4452       1.4939350
       5273.3203       1.3772429
       5274.1955       1.4054504
       5275.0707       1.4982840
       5275.9459       1.4172202
       5276.8210       1.4882220
       5277.6962       1.3530080
       5278.5714       1.5381175
       5279.4466       1.6253194
       5280.3218       1.6221039
       5281.1969       1.6291800
       5282.0721       1.5272927
       5282.9473       1.7436055
       5283.8225       1.8427743
       5284.6976       1.6270940
       5285.5728       1.9232253
       5286.4480       1.7266197
       5287.3232       1.6122827
       5288.1983       1.7181203
       5289.0735       1.5841589
       5289.9487       1.5160737
       5290.8239       1.4973415
       5291.6991       1.5908431
       5292.5742       1.6161711
       5293.4494       1.5651021
       5294.3246       1.6647071
       5295.1998       1.8279486
       5296.0749       1.7407458
       5296.9501       1.8282757
       5297.8253       1.9982877
       5298.7005       1.6691241
       5299.5757       1.8367362
       5300.4508       1.7548629
       5301.3260       1.7093017
       5302.2012       1.4908546
       5303.0764       1.6512593
       5303.9515       1.8666939
       5304.8267       1.7019467
       5305.7019       1.7812050
       5306.5771       1.7239672
       5307.4522       1.7699595
       5308.3274       1.8424251
       5309.2026       1.9526322
       5310.0778       1.8645997
       5310.9530       1.8604025
       5311.8281       1.7907043
       5312.7033       2.0000128
       5313.5785       1.9363505
       5314.4537       1.8623051
       5315.3288       1.9799132
       5316.2040       1.9664709
       5317.0792       1.9623909
       5317.9544       2.0169919
       5318.8295       1.9467772
       5319.7047       2.0438329
       5320.5799       1.9570037
       5321.4551       2.1041391
       5322.3303       1.7608791
       5323.2054       1.9181250
       5324.0806       1.8535618
       5324.9558       1.7691033
       5325.8310       1.6664283
       5326.7061       1.5671713
       5327.5813       2.0386196
       5328.4565       2.1471256
       5329.3317       2.0815613
       5330.2068       1.6376075
       5331.0820       1.0132137
       5331.9572       1.6361888
       5332.8324       1.7539423
       5333.7076       1.7117556
       5334.5827       1.4082617
       5335.4579       1.6571995
       5336.3331       1.7229198
       5337.2083       1.5330210
       5338.0834       1.7662795
       5338.9586       1.7948725
       5339.8338       1.7907485
       5340.7090       1.9652645
       5341.5842       1.7370985
       5342.4593       1.8085455
       5343.3345       1.8135352
       5344.2097       1.9331793
       5345.0849       1.8183223
       5345.9600       1.9286662
       5346.8352       1.9579225
       5347.7104       1.6173464
       5348.5856       1.8134711
       5349.4607       1.7336736
       5350.3359       1.8964216
       5351.2111       2.0061255
       5352.0863       1.7687381
       5352.9615       1.7058029
       5353.8366       1.6759165
       5354.7118       1.8213713
       5355.5870       1.8112727
       5356.4622       1.8259611
       5357.3373       1.7371521
       5358.2125       1.7733711
       5359.0877       1.7346729
       5359.9629       1.8684711
       5360.8380       1.7773145
       5361.7132       1.5686356
       5362.5884       1.9766688
       5363.4636       1.7458772
       5364.3388       1.9236348
       5365.2139       1.9840217
       5366.0891       1.9165814
       5366.9643       1.8009556
       5367.8395       2.0376467
       5368.7146       2.0509450
       5369.5898       1.8424250
       5370.4650       1.8175392
       5371.3402       1.7542031
       5372.2153       1.9640739
       5373.0905       1.9703245
       5373.9657       1.8716345
       5374.8409       2.0167460
       5375.7161       1.8121220
       5376.5912       1.9434531
       5377.4664       1.9809262
       5378.3416       1.9772120
       5379.2168       1.9216320
       5380.0919       1.7181243
       5380.9671       2.1724275
       5381.8423       1.9171445
       5382.7175       2.0565424
       5383.5926       1.9342432
       5384.4678       1.6483804
       5385.3430       1.4060090
       5386.2182       1.4671398
       5387.0934       1.6420175
       5387.9685       1.7778071
       5388.8437       1.6929871
       5389.7189       2.0632544
       5390.5941       1.9347368
       5391.4692       2.1185644
       5392.3444       2.0086416
       5393.2196       2.0998920
       5394.0948       1.8570468
       5394.9700       1.9089487
       5395.8451       1.8204808
       5396.7203       2.0342854
       5397.5955       2.0492585
       5398.4707       2.0252699
       5399.3458       2.1473213
       5400.2210       1.7512258
       5401.0962       1.9839960
       5401.9714       1.7225512
       5402.8465       2.1403372
       5403.7217       2.0161095
       5404.5969       1.6107802
       5405.4721       1.7011365
       5406.3473       1.8624113
       5407.2224       1.5678650
       5408.0976       1.8728970
       5408.9728       2.0391838
       5409.8480       1.7059301
       5410.7231       1.8011045
       5411.5983       2.1370049
       5412.4735       2.1052502
       5413.3487       1.8561307
       5414.2238       1.7250732
       5415.0990       1.9684595
       5415.9742       2.0119819
       5416.8494       1.8874400
       5417.7246       2.0300190
       5418.5997       1.6856476
       5419.4749       1.9315657
       5420.3501       1.6369641
       5421.2253       1.6182940
       5422.1004       1.6441673
       5422.9756       2.1556613
       5423.8508       2.2378283
       5424.7260       1.6055341
       5425.6011       1.9207083
       5426.4763       1.4534592
       5427.3515       1.8678689
       5428.2267       2.0297917
       5429.1019       2.1552428
       5429.9770       1.9634327
       5430.8522       2.0394895
       5431.7274       2.0980438
       5432.6026       1.9860047
       5433.4777       1.8755211
       5434.3529       1.9269937
       5435.2281       2.0808691
       5436.1033       2.0357673
       5436.9785       2.0331649
       5437.8536       2.0197821
       5438.7288       1.8917864
       5439.6040       2.0852967
       5440.4792       2.1424192
       5441.3543       1.9842936
       5442.2295       2.0380241
       5443.1047       1.6526394
       5443.9799       1.5818404
       5444.8550       2.1171135
       5445.7302       2.0485399
       5446.6054       2.1364300
       5447.4806       1.7712009
       5448.3558       2.1694429
       5449.2309       2.0371893
       5450.1061       2.2767422
       5450.9813       1.7763490
       5451.8565       1.9737798
       5452.7316       2.3892949
       5453.6068       2.0268461
       5454.4820       2.1217733
       5455.3572       2.3309501
       5456.2323       1.9323372
       5457.1075       1.8700290
       5457.9827       1.9814788
       5458.8579       1.9507866
       5459.7331       1.8644856
       5460.6082       2.0269636
       5461.4834       2.1735937
       5462.3586       2.0050725
       5463.2338       1.9750626
       5464.1089       2.0562775
       5464.9841       2.1071215
       5465.8593       2.0442496
       5466.7345       2.0017603
       5467.6096       2.0927141
       5468.4848       1.9415663
       5469.3600       2.1231353
       5470.2352       1.7885750
       5471.1104       2.1468212
       5471.9855       1.9844986
       5472.8607       2.0940516
       5473.7359       1.9071572
       5474.6111       1.9429920
       5475.4862       1.8647949
       5476.3614       1.9372887
       5477.2366       1.9806654
       5478.1118       1.7430225
       5478.9869       1.8343614
       5479.8621       2.2822172
       5480.7373       1.9957803
       5481.6125       2.0497903
       5482.4877       1.9444646
       5483.3628       2.2125902
       5484.2380       2.0597549
       5485.1132       1.8616537
       5485.9884       2.1052825
       5486.8635       1.8522173
       5487.7387       2.0287902
       5488.6139       2.1778914
       5489.4891       1.8762487
       5490.3643       1.8433311
       5491.2394       1.9790842
       5492.1146       1.9071626
       5492.9898       2.0816948
       5493.8650       2.1907895
       5494.7401       2.1485029
       5495.6153       1.9680992
       5496.4905       1.9436860
       5497.3657       2.1981326
       5498.2408       1.9480009
       5499.1160       2.0567135
       5499.9912       2.0360683
       5500.8664       1.9573831
       5501.7416       1.9162342
       5502.6167       2.0504347
       5503.4919       1.7631624
       5504.3671       2.0369911
       5505.2423       2.0464152
       5506.1174       1.9002189
       5506.9926       1.8966814
       5507.8678       1.7954143
       5508.7430       1.7957269
       5509.6181       2.3174222
       5510.4933       2.1358826
       5511.3685       2.1063751
       5512.2437       2.0088562
       5513.1189       2.1996562
       5513.9940       1.7761649
       5514.8692       2.0538316
       5515.7444       2.1509709
       5516.6196       2.0950088
       5517.4947       1.9901557
       5518.3699       1.9465362
       5519.2451       2.1396084
       5520.1203       2.0399493
       5520.9954       1.8649189
       5521.8706       2.1707292
       5522.7458       1.7344514
       5523.6210       2.1030500
       5524.4962       2.2587772
       5525.3713       2.0458818
       5526.2465       2.0982060
       5527.1217       2.1238816
       5527.9969       2.0661680
       5528.8720       1.9399396
       5529.7472       2.0357086
       5530.6224       2.0374564
       5531.4976       1.9602922
       5532.3728       2.0926394
       5533.2479       2.0628886
       5534.1231       1.8765038
       5534.9983       2.2992469
       5535.8735       2.1448293
       5536.7486       2.1981729
       5537.6238       2.2370582
       5538.4990       2.1084713
       5539.3742       2.0094942
       5540.2493       2.4760049
       5541.1245       2.1569869
       5541.9997       1.7524434
       5542.8749       1.6757001
       5543.7501       1.5631816
       5544.6252       2.2343172
       5545.5004       2.0210479
       5546.3756       2.0795864
       5547.2508       1.9242817
       5548.1259       2.1734499
       5549.0011       2.1302753
       5549.8763       2.4119837
       5550.7515       2.1330225
       5551.6266       2.1959341
       5552.5018       2.2166745
       5553.3770       2.2103682
       5554.2522       2.2960557
       5555.1274       2.2780483
       5556.0025       1.9620754
       5556.8777       2.1958315
       5557.7529       2.2917902
       5558.6281       2.1261223
       5559.5032       2.3160493
       5560.3784       2.1137651
       5561.2536       2.2063241
       5562.1288       2.0944766
       5563.0039       2.2100719
       5563.8791       2.0770066
       5564.7543       2.3714469
       5565.6295       2.2140144
       5566.5047       2.2470777
       5567.3798       2.0431018
       5568.2550       2.2255749
       5569.1302       2.0488309
       5570.0054       2.0388887
       5570.8805       2.4172831
       5571.7557       2.2305498
       5572.6309       2.2338416
       5573.5061       2.1831399
       5574.3812       2.0583370
       5575.2564       2.0253505
       5576.1316       2.1766975
       5577.0068       2.0869088
       5577.8820       2.0642950
       5578.7571       1.9124404
       5579.6323       2.0126661
       5580.5075       2.3023738
       5581.3827       2.1841670
       5582.2578       2.2355059
       5583.1330       2.2541005
       5584.0082       2.2058876
       5584.8834       2.0428297
       5585.7586       1.7915171
       5586.6337       1.8382204
       5587.5089       1.9567658
       5588.3841       2.2802957
       5589.2593       1.9468113
       5590.1344       2.3060199
       5591.0096       1.9378899
       5591.8848       1.9930648
       5592.7600       2.2512349
       5593.6351       1.8885966
       5594.5103       1.8635948
       5595.3855       1.6875648
       5596.2607       1.3711220
       5597.1359       1.2951808
       5598.0110       1.1770701
       5598.8862      0.98291100
       5599.7614      0.73231524
       5600.6366      0.74455232
       5601.5117      0.84014575
       5602.3869      0.61727564
       5603.2621      0.68640944
       5604.1373             NaN
       5605.0124             NaN
       5605.8876             NaN
       5606.7628             NaN
       5607.6380             NaN
       5608.5132             NaN
       5609.3883             NaN
       5610.2635             NaN
       5611.1387             NaN
       5612.0139             NaN
       5612.8890             NaN
       5613.7642             NaN
       5614.6394             NaN
       5615.5146             NaN
       5616.3897             NaN
       5617.2649             NaN
       5618.1401             NaN
       5619.0153             NaN
       5619.8905             NaN
       5620.7656             NaN
       5621.6408             NaN
       5622.5160             NaN
       5623.3912             NaN
       5624.2663             NaN
       5625.1415             NaN
       5626.0167             NaN
       5626.8919             NaN
       5627.7670             NaN
       5628.6422             NaN
       5629.5174             NaN
       5630.3926             NaN
       5631.2678             NaN
       5632.1429             NaN
       5633.0181             NaN
       5633.8933             NaN
       5634.7685             NaN
       5635.6436             NaN
       5636.5188             NaN
       5637.3940             NaN
       5638.2692             NaN
       5639.1444             NaN
       5640.0195             NaN
       5640.8947             NaN
       5641.7699             NaN
       5642.6451             NaN
       5643.5202             NaN
       5644.3954             NaN
       5645.2706             NaN
       5646.1458             NaN
       5647.0209             NaN
       5647.8961             NaN
       5648.7713             NaN
       5649.6465             NaN
       5650.5217             NaN
       5651.3968             NaN
       5652.2720             NaN
       5653.1472             NaN
       5654.0224             NaN
       5654.8975             NaN
       5655.7727             NaN
       5656.6479             NaN
       5657.5231             NaN
       5658.3982             NaN
       5659.2734             NaN
       5660.1486             NaN
       5661.0238             NaN
       5661.8990             NaN
       5662.7741             NaN
       5663.6493             NaN
       5664.5245             NaN
       5665.3997             NaN
       5666.2748             NaN
       5667.1500             NaN
       5668.0252             NaN
       5668.9004             NaN
       5669.7755             NaN
       5670.6507             NaN
       5671.5259             NaN
       5672.4011             NaN
       5673.2763             NaN
       5674.1514             NaN
       5675.0266             NaN
       5675.9018             NaN
       5676.7770             NaN
       5677.6521             NaN
       5678.5273             NaN
       5679.4025             NaN
       5680.2777             NaN
       5681.1529             NaN
       5682.0280       1.6403782
       5682.9032       1.7882931
       5683.7784       1.7402931
       5684.6536      0.88803411
       5685.5287       2.6873367
       5686.4039       2.2916888
       5687.2791       1.3340996
       5688.1543       1.6292242
       5689.0294       2.4363085
       5689.9046       2.1383626
       5690.7798       2.0778881
       5691.6550       2.0957748
       5692.5302       2.2137617
       5693.4053       2.4192812
       5694.2805       2.2815074
       5695.1557       2.1728191
       5696.0309       2.6003356
       5696.9060       2.1903238
       5697.7812       2.2463353
       5698.6564       2.1314076
       5699.5316       2.3062574
       5700.4067       2.2161502
       5701.2819       2.2185437
       5702.1571       2.2345962
       5703.0323       2.1870499
       5703.9075       2.2423068
       5704.7826       2.1580119
       5705.6578       1.9116046
       5706.5330       2.0824237
       5707.4082       2.2295742
       5708.2833       2.1368142
       5709.1585       1.7536192
       5710.0337       2.1771971
       5710.9089       1.9583211
       5711.7840       2.7688466
       5712.6592       1.9061415
       5713.5344       1.7261006
       5714.4096       2.0922538
       5715.2848       2.0271207
       5716.1599       2.0440058
       5717.0351       2.0429206
       5717.9103       1.9788964
       5718.7855       2.3344787
       5719.6606       2.1212205
       5720.5358       1.8627427
       5721.4110       2.0387300
       5722.2862       2.1580933
       5723.1613       2.1664612
       5724.0365       2.1243250
       5724.9117       2.0683639
       5725.7869       2.1687905
       5726.6621       2.0356596
       5727.5372       2.0966479
       5728.4124       2.0858598
       5729.2876       2.2057053
       5730.1628       1.8383251
       5731.0379       2.1419598
       5731.9131       1.7682380
       5732.7883       2.2887249
       5733.6635       2.2641930
       5734.5387       2.3250970
       5735.4138       2.2894413
       5736.2890       2.1523959
       5737.1642       2.3742907
       5738.0394       2.2387079
       5738.9145       2.2620071
       5739.7897       2.1962510
       5740.6649       2.1371176
       5741.5401       2.5382097
       5742.4152       2.3527100
       5743.2904       2.4164098
       5744.1656       1.9151213
       5745.0408       2.3901081
       5745.9160       2.1958419
       5746.7911       1.8765607
       5747.6663       2.2097952
       5748.5415       2.3279051
       5749.4167       2.2374522
       5750.2918       2.4362342
       5751.1670       2.3665342
       5752.0422       2.1612600
       5752.9174       2.2752026
       5753.7925       2.1054105
       5754.6677       2.3482341
       5755.5429       2.2393999
       5756.4181       2.0740229
       5757.2933       2.0845066
       5758.1684       1.9501403
       5759.0436       1.9784764
       5759.9188       2.3615153
       5760.7940       2.1132278
       5761.6691       2.6820833
       5762.5443       2.1821091
       5763.4195      0.32296148
       5764.2947       1.4400904
       5765.1698       1.7838123
       5766.0450       2.0872384
       5766.9202       2.3390718
       5767.7954       2.1166260
       5768.6706       2.0980278
       5769.5457       2.4861085
       5770.4209       2.3888446
       5771.2961       2.0582981
       5772.1713       2.2723168
       5773.0464       2.1348399
       5773.9216       2.0982817
       5774.7968       2.2013155
       5775.6720       2.2625210
       5776.5472       2.3560034
       5777.4223       2.4142027
       5778.2975       2.1882317
       5779.1727       2.2576398
       5780.0479       2.1553242
       5780.9230       2.1543973
       5781.7982       2.0533681
       5782.6734       2.3110713
       5783.5486       2.1658635
       5784.4237       2.3503526
       5785.2989       2.0399560
       5786.1741       1.7313402
       5787.0493       1.5073649
       5787.9245       1.7418533
       5788.7996       2.2063119
       5789.6748       2.5801727
       5790.5500       1.9678867
       5791.4252       1.9251247
       5792.3003       2.3009663
       5793.1755       1.9581968
       5794.0507       2.3115846
       5794.9259       2.5279641
       5795.8010       2.3679473
       5796.6762       2.2588687
       5797.5514       2.0452475
       5798.4266       1.9786783
       5799.3018       1.7092084
       5800.1769       1.8294583
       5801.0521       2.0261707
       5801.9273       2.0690344
       5802.8025       2.0030757
       5803.6776       2.4458890
       5804.5528       2.0446199
       5805.4280       2.0043572
       5806.3032       1.6831760
       5807.1783       1.7172543
       5808.0535       1.7377643
       5808.9287       2.0078902
       5809.8039       2.0720647
       5810.6791       2.2457723
       5811.5542       2.1862331
       5812.4294       2.1264603
       5813.3046       1.6752971
       5814.1798       1.9337120
       5815.0549       1.7581101
       5815.9301       2.2216040
       5816.8053       1.7958177
       5817.6805       2.0173427
       5818.5556       1.9067652
       5819.4308       1.5538133
       5820.3060       1.8010059
       5821.1812       2.0503720
       5822.0564       2.2434789
       5822.9315       2.2617165
       5823.8067       2.0763556
       5824.6819       2.1209806
       5825.5571       2.2995433
       5826.4322       1.9739961
       5827.3074       2.0720077
       5828.1826       2.1528739
       5829.0578       2.3859699
       5829.9330       2.0018590
       5830.8081       2.1041977
       5831.6833       1.7881635
       5832.5585       1.9704732
       5833.4337       2.5389100
       5834.3088       2.2676701
       5835.1840       1.7689628
       5836.0592       1.7352412
       5836.9344       2.0573667
       5837.8095       1.7247767
       5838.6847       1.5267391
       5839.5599       2.2365101
       5840.4351       1.8986993
       5841.3103       2.1382784
       5842.1854       2.5775109
       5843.0606       2.0228078
       5843.9358       2.0928836
       5844.8110       2.7277588
       5845.6861       2.0555047
       5846.5613       2.6865362
       5847.4365       2.5768431
       5848.3117       2.2342718
       5849.1868       2.2735813
       5850.0620       2.5160524
       5850.9372       2.2301900
       5851.8124       2.1745530
       5852.6876       2.1766257
       5853.5627       2.0516528
       5854.4379       2.2163000
       5855.3131       1.5595754
       5856.1883       1.8318945
       5857.0634       2.0642310
       5857.9386       2.0991163
       5858.8138       2.1738254
       5859.6890       2.3319408
       5860.5641       2.3351072
       5861.4393       2.1655241
       5862.3145       2.1801038
       5863.1897       2.1479952
       5864.0649       2.2959876
       5864.9400       2.2236800
       5865.8152       2.2825585
       5866.6904       2.3078207
       5867.5656       1.9394510
       5868.4407       2.1942769
       5869.3159       2.4264940
       5870.1911       2.0487800
       5871.0663       1.9279764
       5871.9415       1.7609290
       5872.8166       1.5261716
       5873.6918       2.2166103
       5874.5670       2.2239495
       5875.4422       2.2832232
       5876.3173       2.1915605
       5877.1925       2.1989528
       5878.0677       2.0380077
       5878.9429       1.9236977
       5879.8180       2.2202853
       5880.6932       2.3460972
       5881.5684       2.1240432
       5882.4436       2.2570474
       5883.3188       1.8000231
       5884.1939       2.3506590
       5885.0691       2.0466856
       5885.9443       2.5154559
       5886.8195       2.2296770
       5887.6946       1.9604135
       5888.5698       1.9728299
       5889.4450       2.0533507
       5890.3202       2.3705653
       5891.1953       2.3270708
       5892.0705       1.7835673
       5892.9457       1.6745289
       5893.8209       2.3365006
       5894.6961       2.5291506
       5895.5712       2.0837268
       5896.4464       2.2071683
       5897.3216       2.2656397
       5898.1968       2.0810966
       5899.0719       2.1245753
       5899.9471       2.0625623
       5900.8223       2.3504733
       5901.6975       1.9487944
       5902.5726       2.1580925
       5903.4478       2.0589217
       5904.3230       1.8992549
       5905.1982       1.8455922
       5906.0734       1.6995237
       5906.9485       1.9569392
       5907.8237       1.9585213
       5908.6989       1.7639865
       5909.5741       1.8620269
       5910.4492       2.0374126
       5911.3244       2.1799162
       5912.1996       1.7441767
       5913.0748       1.5733201
       5913.9499       1.7015186
       5914.8251       1.7092717
       5915.7003       1.8782512
       5916.5755       1.7850169
       5917.4507       1.9120168
       5918.3258       1.8044258
       5919.2010       1.7841768
       5920.0762       2.1420097
       5920.9514       2.2486234
       5921.8265       2.2246037
       5922.7017       2.1966691
       5923.5769       2.0813371
       5924.4521       2.2023209
       5925.3273       2.0874120
       5926.2024       2.0690977
       5927.0776       2.2625828
       5927.9528       2.1584784
       5928.8280       2.2128090
       5929.7031       2.2512856
       5930.5783       2.3351647
       5931.4535       2.3026711
       5932.3287       2.0595164
       5933.2038       2.3179969
       5934.0790       2.1458785
       5934.9542       1.8103215
       5935.8294       2.2237588
       5936.7046       2.4201137
       5937.5797       1.8756914
       5938.4549       2.1777914
       5939.3301       2.0906653
       5940.2053       1.7419654
       5941.0804       2.2726537
       5941.9556       2.1447606
       5942.8308       2.3884787
       5943.7060       2.0384670
       5944.5811       2.0573414
       5945.4563       2.0294711
       5946.3315       2.2216729
       5947.2067       2.2631627
       5948.0819       2.0171873
       5948.9570       1.9528145
       5949.8322       2.0056940
       5950.7074       2.1939925
       5951.5826       2.2497789
       5952.4577       2.0153089
       5953.3329       2.0376990
       5954.2081       1.9721613
       5955.0833       2.1482053
       5955.9584       2.2755088
       5956.8336       2.0804709
       5957.7088       1.9929500
       5958.5840       1.9940614
       5959.4592       2.2944677
       5960.3343       2.2678023
       5961.2095       2.1879184
       5962.0847       2.0985725
       5962.9599       2.2657618
       5963.8350       2.2412489
       5964.7102       2.2069342
       5965.5854       2.0216162
       5966.4606       2.1660952
       5967.3357       2.2709281
       5968.2109       2.3752951
       5969.0861       2.3583332
       5969.9613       2.4602840
       5970.8365       2.3345183
       5971.7116       2.5451459
       5972.5868       2.3112217
       5973.4620       2.4794890
       5974.3372       2.4578703
       5975.2123       2.2971574
       5976.0875       2.2015746
       5976.9627       2.6057524
       5977.8379       2.2621983
       5978.7131       2.3483675
       5979.5882       2.0271584
       5980.4634       2.3190483
       5981.3386       2.2805083
       5982.2138       2.2006264
       5983.0889       2.4850683
       5983.9641       2.1494043
       5984.8393       2.2034075
       5985.7145       2.2935192
       5986.5896       2.2215713
       5987.4648       1.9887592
       5988.3400       2.1421386
       5989.2152       2.2313371
       5990.0904       2.2804295
       5990.9655       2.1381511
       5991.8407       2.2330169
       5992.7159       2.1070653
       5993.5911       1.9349943
       5994.4662       2.3502528
       5995.3414       1.9589335
       5996.2166       2.1064991
       5997.0918       1.8950339
       5997.9669       1.7579096
       5998.8421       1.9160206
       5999.7173       2.1563967
       6000.5925       2.1925490
       6001.4677       2.0745633
       6002.3428       1.8819797
       6003.2180       2.0462368
       6004.0932       1.8817137
       6004.9684       1.8479600
       6005.8435       2.1114553
       6006.7187       2.0455384
       6007.5939       2.1966018
       6008.4691       1.9136463
       6009.3442       2.0218951
       6010.2194       2.2921275
       6011.0946       2.0611193
       6011.9698       2.0374414
       6012.8450       1.8288697
       6013.7201       1.8875303
       6014.5953       2.1835004
       6015.4705       2.0505036
       6016.3457       1.8554816
       6017.2208       1.9078540
       6018.0960       2.2075435
       6018.9712       2.0092403
       6019.8464       1.9812910
       6020.7216       1.9604254
       6021.5967       1.7703956
       6022.4719       1.7592514
       6023.3471       2.0913573
       6024.2223       2.1473110
       6025.0974       1.7950464
       6025.9726       2.1179677
       6026.8478       1.9808885
       6027.7230       1.9463698
       6028.5981       1.9721488
       6029.4733       2.1741597
       6030.3485       1.9694578
       6031.2237       2.2201716
       6032.0989       1.8403899
       6032.9740       2.2314537
       6033.8492       2.1991661
       6034.7244       2.2517024
       6035.5996       2.1878184
       6036.4747       2.1099382
       6037.3499       2.0672694
       6038.2251       2.0452664
       6039.1003       2.0921693
       6039.9754       1.8886674
       6040.8506       1.9791078
       6041.7258       1.9908503
       6042.6010       1.9946255
       6043.4762       2.1543951
       6044.3513       2.0645009
       6045.2265       2.0736122
       6046.1017       2.0104650
       6046.9769       2.2614794
       6047.8520       2.0591770
       6048.7272       2.3844915
       6049.6024       2.0289478
       6050.4776       2.1150592
       6051.3527       2.1215037
       6052.2279       2.0654628
       6053.1031       2.1574456
       6053.9783       2.2631057
       6054.8535       2.3083346
       6055.7286       2.2458480
       6056.6038       2.2854151
       6057.4790       2.0349640
       6058.3542       2.1765701
       6059.2293       2.2313812
       6060.1045       1.9602587
       6060.9797       2.3834027
       6061.8549       2.2117052
       6062.7300       2.1627813
       6063.6052       2.0143567
       6064.4804       2.1053463
       6065.3556       2.2008543
       6066.2308       2.0025012
       6067.1059       1.9688178
       6067.9811       1.8307426
       6068.8563       2.0559383
       6069.7315       2.2322648
       6070.6066       2.0281506
       6071.4818       2.3095016
       6072.3570       2.0662362
       6073.2322       2.2555282
       6074.1074       2.0243854
       6074.9825       2.2442551
       6075.8577       2.2812358
       6076.7329       2.2572481
       6077.6081       2.1412294
       6078.4832       2.3826255
       6079.3584       2.2568474
       6080.2336       2.0851528
       6081.1088       2.1011015
       6081.9839       2.1695154
       6082.8591       2.2473776
       6083.7343       2.4507630
       6084.6095       2.1315682
       6085.4847       2.2690796
       6086.3598       2.2846293
       6087.2350       2.1506276
       6088.1102       2.3622740
       6088.9854       2.1983653
       6089.8605       2.0567832
       6090.7357       2.3186951
       6091.6109       2.2360812
       6092.4861       2.5342950
       6093.3612       2.1300327
       6094.2364       2.3746412
       6095.1116       2.4010397
       6095.9868       2.1402887
       6096.8620       2.3011828
       6097.7371       2.2673915
       6098.6123       2.0367574
       6099.4875       1.9441180
       6100.3627       2.1194581
       6101.2378       2.1851981
       6102.1130       1.9923462
       6102.9882       1.8568736
       6103.8634       1.6991681
       6104.7385       1.7139936
       6105.6137       1.7769265
       6106.4889       2.2049206
       6107.3641       1.5199309
       6108.2393       1.7014614
       6109.1144       1.2404877
       6109.9896       1.6114191
       6110.8648       1.6983491
       6111.7400       2.1215743
       6112.6151       1.4941576
       6113.4903       2.0822057
       6114.3655       2.0972973
       6115.2407       1.4445383
       6116.1159       1.5730778
       6116.9910       1.0177738
       6117.8662       1.7882664
       6118.7414       2.0861474
       6119.6166       1.8515383
       6120.4917       2.3171080
       6121.3669       1.7628736
       6122.2421       2.1594713
       6123.1173       1.9457017
       6123.9924       1.9332955
       6124.8676       2.1708384
       6125.7428       1.9946362
       6126.6180       1.7331019
       6127.4932       2.4656836
       6128.3683       2.2088531
       6129.2435       2.2246572
       6130.1187       2.1260892
       6130.9939       1.9288503
       6131.8690       2.1009893
       6132.7442       2.0968806
       6133.6194       2.2451343
       6134.4946       2.0002673
       6135.3697       2.3406157
       6136.2449       2.2244999
       6137.1201       2.0778002
       6137.9953       2.1548143
       6138.8705       2.1946488
       6139.7456       2.0483464
       6140.6208       2.0574415
       6141.4960       2.0106574
       6142.3712       2.2645754
       6143.2463       2.1994052
       6144.1215       1.9316931
       6144.9967       2.1633417
       6145.8719       2.2742573
       6146.7470       2.1706675
       6147.6222       2.1595755
       6148.4974       1.7677523
       6149.3726       1.8678695
       6150.2478       2.4293401
       6151.1229       1.6128697
       6151.9981       1.5016839
       6152.8733       1.8354138
       6153.7485       1.1883175
       6154.6236       1.4404423
       6155.4988       1.8124131
       6156.3740       1.0740617
       6157.2492       1.2062836
       6158.1243       1.5999365
       6158.9995       1.7536567
       6159.8747       1.7856524
       6160.7499       2.5704915
       6161.6251       2.4052704
       6162.5002       2.1256927
       6163.3754       2.1049474
       6164.2506       1.8334290
       6165.1258       2.3882129
       6166.0009       2.5225200
       6166.8761       3.1158131
       6167.7513       2.7907416
       6168.6265       2.5928902
       6169.5017       2.0849754
       6170.3768       2.1527796
       6171.2520       2.1958779
       6172.1272       1.9789662
       6173.0024       2.2350421
       6173.8775       2.1537270
       6174.7527       2.2023236
       6175.6279       1.9703140
       6176.5031       2.2286135
       6177.3782       1.7569449
       6178.2534       1.7742353
       6179.1286       1.7307208
       6180.0038       1.6810120
       6180.8790       1.9614618
       6181.7541       2.0723142
       6182.6293       1.8103199
       6183.5045       1.9816381
       6184.3797       2.1361282
       6185.2548       2.2311723
       6186.1300       2.0163978
       6187.0052       1.8457417
       6187.8804       1.6697514
       6188.7555       1.5173225
       6189.6307       1.8433580
       6190.5059       2.0697895
       6191.3811       2.3626814
       6192.2563       2.1392676
       6193.1314       1.7004688
       6194.0066       2.4193627
       6194.8818       2.0660931
       6195.7570       2.1116838
       6196.6321       2.5053505
       6197.5073       2.3192286
       6198.3825       2.1471742
       6199.2577       2.0135449
       6200.1328       2.2845020
       6201.0080       2.1822571
       6201.8832       1.7971724
       6202.7584       2.2593832
       6203.6336       2.5026638
       6204.5087       2.5734725
       6205.3839       2.2102535
       6206.2591       2.4448799
       6207.1343       2.0089681
       6208.0094       2.1293604
       6208.8846       2.2632354
       6209.7598       2.1738585
       6210.6350       1.8464408
       6211.5102       1.5750075
       6212.3853       2.0661014
       6213.2605       1.9837239
       6214.1357       1.5790729
       6215.0109       2.0883920
       6215.8860       1.7149385
       6216.7612       2.4621735
       6217.6364       2.4402006
       6218.5116       2.0016931
       6219.3867       2.0731523
       6220.2619       2.2969333
       6221.1371       2.1358587
       6222.0123       2.3126722
       6222.8875       2.2794807
       6223.7626       2.5546983
       6224.6378       2.2192886
       6225.5130       2.2678564
       6226.3882       2.2432883
       6227.2633       2.3862935
       6228.1385       2.4662734
       6229.0137       2.1247073
       6229.8889       1.6510261
       6230.7640       1.9448727
       6231.6392       2.0660367
       6232.5144       2.3519252
       6233.3896       2.3571007
       6234.2648       2.2192810
       6235.1399       2.1447276
       6236.0151       1.7807144
       6236.8903       1.8558692
       6237.7655       1.9027598
       6238.6406       2.1896900
       6239.5158       1.7138495
       6240.3910       2.0570351
       6241.2662       1.6965604
       6242.1413       2.2227255
       6243.0165       1.4431964
       6243.8917       2.3217271
       6244.7669       2.0181645
       6245.6421       2.2500197
       6246.5172       1.9347261
       6247.3924       2.1309086
       6248.2676       2.2307943
       6249.1428       2.2303419
       6250.0179       2.0946788
       6250.8931       1.9542619
       6251.7683       2.1591230
       6252.6435       2.1816207
       6253.5186       2.2752304
       6254.3938       2.1525109
       6255.2690       2.1810784
       6256.1442       2.0924867
       6257.0194       2.1807844
       6257.8945       1.8850024
       6258.7697       2.1474903
       6259.6449       1.7644610
       6260.5201       1.6037375
       6261.3952       2.6830753
       6262.2704       1.9779543
       6263.1456       2.1506023
       6264.0208       2.0959551
       6264.8960       2.1841001
       6265.7711       2.2271794
       6266.6463       1.8311850
       6267.5215       1.8978764
       6268.3967       1.5287880
       6269.2718       2.4189214
       6270.1470       2.1884888
       6271.0222       2.1034774
       6271.8974       1.8685745
       6272.7725       2.0319784
       6273.6477       2.1335705
       6274.5229       1.9545369
       6275.3981       2.2639332
       6276.2733       2.1547185
       6277.1484       2.1479388
       6278.0236       2.0812404
       6278.8988       2.2391321
       6279.7740       2.1937951
       6280.6491       2.2280969
       6281.5243       2.1090627
       6282.3995       2.1981545
       6283.2747       2.3214065
       6284.1498       2.2821219
       6285.0250       2.3071115
       6285.9002       2.2654862
       6286.7754       2.2210986
       6287.6506       2.2948355
       6288.5257       2.1335638
       6289.4009       2.2943434
       6290.2761       2.4305385
       6291.1513       2.3727788
       6292.0264       2.3228211
       6292.9016       2.2472545
       6293.7768       2.1724848
       6294.6520       2.3493630
       6295.5271       2.2732778
       6296.4023       2.3923507
       6297.2775       2.4544272
       6298.1527       1.9856779
       6299.0279       2.4652657
       6299.9030       2.5046042
       6300.7782       2.2499126
       6301.6534       1.9253463
       6302.5286       1.9089422
       6303.4037       2.4774023
       6304.2789       2.3834815
       6305.1541       2.2933715
       6306.0293       2.3380294
       6306.9044       2.5074027
       6307.7796       2.3232667
       6308.6548       2.3565520
       6309.5300       2.3650445
       6310.4052       2.3076718
       6311.2803       2.3026870
       6312.1555       2.3271514
       6313.0307       2.3234042
       6313.9059       2.3982023
       6314.7810       2.5351391
       6315.6562       2.3104139
       6316.5314       2.0880484
       6317.4066       2.0629975
       6318.2818       2.3300031
       6319.1569       2.3548194
       6320.0321       2.4810803
       6320.9073       2.2613969
       6321.7825       2.2693388
       6322.6576       2.2163018
       6323.5328       2.2353332
       6324.4080       2.1183622
       6325.2832       2.1286040
       6326.1583       2.2691835
       6327.0335       2.3015117
       6327.9087       2.1965438
       6328.7839       2.0459856
       6329.6591       2.3572368
       6330.5342       2.1190234
       6331.4094       1.8874043
       6332.2846       2.2209415
       6333.1598       2.2436604
       6334.0349       2.3498396
       6334.9101       2.1337122
       6335.7853       2.1712277
       6336.6605       2.4144110
       6337.5356       2.1636492
       6338.4108       1.9506391
       6339.2860       2.0429303
       6340.1612       2.3422014
       6341.0364       2.0905587
       6341.9115       2.2215639
       6342.7867       2.0734812
       6343.6619       2.3684311
       6344.5371       2.2312720
       6345.4122       2.3812794
       6346.2874       2.3610106
       6347.1626       2.4073848
       6348.0378       2.4447801
       6348.9129       2.2087817
       6349.7881       2.3347419
       6350.6633       2.2442276
       6351.5385       2.4285679
       6352.4137       1.9125571
       6353.2888       2.1563614
       6354.1640       1.6251543
       6355.0392       2.3273347
       6355.9144       2.1368537
       6356.7895       2.3893046
       6357.6647       1.9641622
       6358.5399       1.9212078
       6359.4151       1.7583558
       6360.2903       2.2804392
       6361.1654       2.6424322
       6362.0406       1.1467705
       6362.9158       1.6599795
       6363.7910       1.9619620
       6364.6661       2.1281978
       6365.5413       1.4549690
       6366.4165       2.0086386
       6367.2917       1.7017851
       6368.1668       2.0730370
       6369.0420       2.3438379
       6369.9172       2.1177848
       6370.7924       1.9815786
       6371.6676       2.3354901
       6372.5427       1.9561527
       6373.4179       1.7767266
       6374.2931       1.7562657
       6375.1683       2.2547542
       6376.0434       1.8229784
       6376.9186       1.8418808
       6377.7938       1.8180506
       6378.6690       2.0935399
       6379.5441       1.8701207
       6380.4193       1.8293014
       6381.2945       1.8033165
       6382.1697       1.9470412
       6383.0449       1.7175407
       6383.9200       2.1041494
       6384.7952       2.0373841
       6385.6704       2.4895319
       6386.5456       2.0908546
       6387.4207       1.2931582
       6388.2959       1.6943960
       6389.1711       1.2383398
       6390.0463       1.1100786
       6390.9214       2.6073862
       6391.7966       2.4856154
       6392.6718       2.4317095
       6393.5470       2.0895321
       6394.4222       2.8834221
       6395.2973       2.1129107
       6396.1725       2.3637019
       6397.0477       2.1624264
       6397.9229       2.6370464
       6398.7980       2.1092053
       6399.6732       2.1789651
       6400.5484       2.3340239
       6401.4236       2.5227237
       6402.2987       2.2535645
       6403.1739       2.2499250
       6404.0491       2.5445602
       6404.9243       2.2097215
       6405.7995       2.3168614
       6406.6746       2.2489337
       6407.5498       2.5489143
       6408.4250       2.1547510
       6409.3002       2.2682970
       6410.1753       2.7887717
       6411.0505       2.5122084
       6411.9257       2.3217259
       6412.8009       2.5546411
       6413.6761       2.9008582
       6414.5512       2.1931068
       6415.4264       2.4458975
       6416.3016       2.7174009
       6417.1768       2.2937079
       6418.0519       2.3395349
       6418.9271       2.3657685
       6419.8023       2.4139308
       6420.6775       2.1622555
       6421.5526       2.3161832
       6422.4278       2.2854426
       6423.3030       2.4295920
       6424.1782       2.3708623
       6425.0534       2.4711560
       6425.9285       2.4322046
       6426.8037       2.3218447
       6427.6789       2.5233916
       6428.5541       2.1800115
       6429.4292       2.3319315
       6430.3044       2.5554311
       6431.1796       2.5052103
       6432.0548       2.2758351
       6432.9299       2.3645281
       6433.8051       2.7696340
       6434.6803       2.4993390
       6435.5555       2.5388588
       6436.4307       2.3552199
       6437.3058       2.5866874
       6438.1810       2.2921018
       6439.0562       2.3961926
       6439.9314       2.4172251
       6440.8065       2.4616739
       6441.6817       2.4515569
       6442.5569       2.1175655
       6443.4321       2.2648663
       6444.3072       2.4577104
       6445.1824       2.3302235
       6446.0576       2.2553753
       6446.9328       2.4386474
       6447.8080       2.2440436
       6448.6831       2.3918974
       6449.5583       2.2077966
       6450.4335       2.3500878
       6451.3087       2.3078135
       6452.1838       2.4264370
       6453.0590       1.8586337
       6453.9342       2.4019240
       6454.8094       2.3759086
       6455.6846       2.2060729
       6456.5597       2.9665768
       6457.4349       2.0380801
       6458.3101      0.85526882
       6459.1853       1.0380381
       6460.0604       1.6899086
       6460.9356       2.4432807
       6461.8108       1.5783778
       6462.6860       2.2464682
       6463.5611       2.4339563
       6464.4363       1.6955207
       6465.3115       2.4511121
       6466.1867       1.7876183
       6467.0619       2.4348508
       6467.9370       2.3472539
       6468.8122       1.5854494
       6469.6874       1.8165195
       6470.5626       2.0905235
       6471.4377       2.3740325
       6472.3129       2.2995411
       6473.1881       2.0062766
       6474.0633       2.2810801
       6474.9384       2.3559235
       6475.8136       2.1428464
       6476.6888       2.2069647
       6477.5640       2.4555101
       6478.4392       2.1734479
       6479.3143       2.1611263
       6480.1895       2.6781901
       6481.0647       2.2574563
       6481.9399       2.3539862
       6482.8150       2.4271402
       6483.6902       2.4592905
       6484.5654       2.4185985
       6485.4406       2.5776070
       6486.3157       2.3764252
       6487.1909       2.4402056
       6488.0661       2.5223717
       6488.9413       2.4447073
       6489.8165       2.5020805
       6490.6916       2.5789031
       6491.5668       2.4297746
       6492.4420       2.3636855
       6493.3172       2.6017936
       6494.1923       2.5088438
       6495.0675       2.7553952
       6495.9427       2.3903419
       6496.8179       2.5206410
       6497.6930       2.2803139
       6498.5682       2.5501048
       6499.4434       2.4272228
       6500.3186       2.3576734
       6501.1938       2.0082747
       6502.0689       1.8229299
       6502.9441       1.8998148
       6503.8193       1.2199152
       6504.6945       2.3317731
       6505.5696      0.82920327
       6506.4448      0.97001892
       6507.3200       1.6722571
       6508.1952       2.4226297
       6509.0704       2.0744312
       6509.9455       3.0235787
       6510.8207       1.5849078
       6511.6959      0.91424093
       6512.5711       2.0326715
       6513.4462       1.7260168
       6514.3214       2.0483936
       6515.1966       2.3670311
       6516.0718       2.2703560
       6516.9469       2.1901676
       6517.8221       2.2506687
       6518.6973       2.5755555
       6519.5725       2.2583046
       6520.4477       2.2711643
       6521.3228       2.6981399
       6522.1980       2.4498552
       6523.0732       2.5075739
       6523.9484       2.7209393
       6524.8235       2.5141078
       6525.6987       2.2685894
       6526.5739       2.3865808
       6527.4491       2.3898491
       6528.3242       2.5681887
       6529.1994       2.1980953
       6530.0746       2.5995361
       6530.9498       2.3829712
       6531.8250       2.2631806
       6532.7001       2.6716634
       6533.5753       1.4145134
       6534.4505       2.5421397
       6535.3257       2.7247885
       6536.2008       2.2974548
       6537.0760       2.8948656
       6537.9512       2.2031951
       6538.8264       2.3501699
       6539.7015       2.6189453
       6540.5767       2.4849093
       6541.4519       2.4260571
       6542.3271       2.5864923
       6543.2023       2.6639933
       6544.0774       2.1466485
       6544.9526       1.7450527
       6545.8278       1.0797508
       6546.7030       1.1767288
       6547.5781       1.0742319
       6548.4533     -0.33859967
       6549.3285      0.81154274
       6550.2037       1.5954899
       6551.0789       1.7311874
       6551.9540       2.6666686
       6552.8292       2.9308045
       6553.7044       2.5136537
       6554.5796       2.8264465
       6555.4547       2.7667699
       6556.3299       2.8250688
       6557.2051       2.6169644
       6558.0803       2.1855795
       6558.9554       2.3381977
       6559.8306       2.4761675
       6560.7058       2.4466774
       6561.5810       2.5937379
       6562.4562       2.8882428
       6563.3313       2.9018682
       6564.2065       2.6788903
       6565.0817       3.0599937
       6565.9569       3.0565827
       6566.8320       2.7467937
       6567.7072       2.6878424
       6568.5824       2.8336758
       6569.4576       2.7188751
       6570.3327       1.9387060
       6571.2079       2.1242187
       6572.0831       1.5970919
       6572.9583       1.8362211
       6573.8335       1.0976086
       6574.7086       2.7865090
       6575.5838       2.5459153
       6576.4590       2.4899879
       6577.3342       3.2416780
       6578.2093       3.6587949
       6579.0845       4.0526059
       6579.9597       3.8688300
       6580.8349       3.7335467
       6581.7100       3.7875126
       6582.5852       3.4028238
       6583.4604       3.3506718
       6584.3356       2.9592731
       6585.2108       2.7357535
       6586.0859       2.6187250
       6586.9611       2.5486148
       6587.8363       2.1578652
       6588.7115       2.2213710
       6589.5866       2.4389274
       6590.4618       2.2246449
       6591.3370       2.8347370
       6592.2122       2.0825266
       6593.0873       2.1710038
       6593.9625       2.5203529
       6594.8377       2.6491862
       6595.7129       2.8302515
       6596.5881       2.4393260
       6597.4632       3.1084045
       6598.3384       3.1567640
       6599.2136       3.6058847
       6600.0888       3.2641607
       6600.9639       2.2937015
       6601.8391       3.0778823
       6602.7143       2.9770321
       6603.5895       3.1526780
       6604.4647       3.0642206
       6605.3398       2.9184279
       6606.2150       2.6222048
       6607.0902       2.5315127
       6607.9654       2.4032951
       6608.8405       2.2725361
       6609.7157       2.4075832
       6610.5909       2.3636691
       6611.4661       2.2953496
       6612.3412       2.3497721
       6613.2164       2.3098259
       6614.0916       2.3806601
       6614.9668       2.3955127
       6615.8420       2.6550687
       6616.7171       2.5003638
       6617.5923       2.5198853
       6618.4675       2.4966788
       6619.3427       2.3756345
       6620.2178       2.2961777
       6621.0930       2.2327424
       6621.9682       2.3564797
       6622.8434       1.7378967
       6623.7185       2.0570906
       6624.5937       2.1290004
       6625.4689       1.8591700
       6626.3441       2.1485926
       6627.2193       2.4845355
       6628.0944       2.4549500
       6628.9696       2.4057416
       6629.8448       2.5634378
       6630.7200       2.8635000
       6631.5951       2.6783131
       6632.4703       2.5048437
       6633.3455       2.3695110
       6634.2207       2.4435749
       6635.0958       2.4541008
       6635.9710       2.3258084
       6636.8462       2.4448941
       6637.7214       2.4565461
       6638.5966       2.4884181
       6639.4717       2.8253909
       6640.3469       2.6596744
       6641.2221       2.6710672
       6642.0973       2.6075292
       6642.9724       2.3294445
       6643.8476       2.5309730
       6644.7228       2.6062691
       6645.5980       2.7084021
       6646.4731       2.3676156
       6647.3483       2.4897193
       6648.2235       2.4357041
       6649.0987       2.6187160
       6649.9739       2.6400258
       6650.8490       2.3674274
       6651.7242       2.2791826
       6652.5994       2.7494074
       6653.4746       2.7546091
       6654.3497       2.5703747
       6655.2249       2.7441408
       6656.1001       2.5922802
       6656.9753       2.8605067
       6657.8505       2.7524856
       6658.7256       3.0437914
       6659.6008       3.1431306
       6660.4760       2.4937417
       6661.3512       2.5113498
       6662.2263       2.8236520
       6663.1015       2.6145905
       6663.9767       2.5292936
       6664.8519       2.3543223
       6665.7270       1.9548758
       6666.6022       1.7643923
       6667.4774       2.9445076
       6668.3526       1.9109500
       6669.2278       2.1483440
       6670.1029       2.7376254
       6670.9781       2.5090739
       6671.8533       2.4910444
       6672.7285       2.7082013
       6673.6036       2.8477521
       6674.4788       2.5387812
       6675.3540       2.9319303
       6676.2292       2.8308584
       6677.1043       2.5413139
       6677.9795       2.3612729
       6678.8547       2.8334338
       6679.7299       2.7039905
       6680.6051       2.5192457
       6681.4802       2.6002674
       6682.3554       2.5167636
       6683.2306       2.4401387
       6684.1058       2.5696229
       6684.9809       2.6155080
       6685.8561       2.4826797
       6686.7313       2.5613654
       6687.6065       2.6507455
       6688.4816       2.6267416
       6689.3568       2.6246440
       6690.2320       2.7728196
       6691.1072       2.6114578
       6691.9824       2.6395382
       6692.8575       2.5703511
       6693.7327       2.4991499
       6694.6079       2.7375502
       6695.4831       2.5408917
       6696.3582       2.5559858
       6697.2334       2.8250522
       6698.1086       2.6323565
       6698.9838       2.7069646
       6699.8590       2.7530126
       6700.7341       2.7275543
       6701.6093       2.7272918
       6702.4845       2.8568953
       6703.3597       2.8664804
       6704.2348       2.5807625
       6705.1100       2.6420214
       6705.9852       3.6357553
       6706.8604       3.2351374
       6707.7355       2.4045767
       6708.6107       2.6290532
       6709.4859       2.5127693
       6710.3611       2.8075088
       6711.2363       2.6226648
       6712.1114       2.3972274
       6712.9866       2.7012156
       6713.8618       2.7299549
       6714.7370       2.6981462
       6715.6121       2.4655191
       6716.4873       2.5726070
       6717.3625       2.6295239
       6718.2377       2.5885138
       6719.1128       2.6134276
       6719.9880       2.4125875
       6720.8632       2.7048036
       6721.7384       2.9461936
       6722.6136       2.7330939
       6723.4887       2.7793273
       6724.3639       2.4838604
       6725.2391       2.6933626
       6726.1143       2.5935555
       6726.9894       2.5446026
       6727.8646       2.5201422
       6728.7398       2.5423769
       6729.6150       2.4519833
       6730.4901       2.6216253
       6731.3653       2.5498945
       6732.2405       3.0482322
       6733.1157       2.7154854
       6733.9909       2.9504917
       6734.8660       2.9410963
       6735.7412       2.8854441
       6736.6164       2.8277109
       6737.4916       2.8260929
       6738.3667       2.9256568
       6739.2419       2.6172804
       6740.1171       2.6808185
       6740.9923       2.6484926
       6741.8674       2.3770578
       6742.7426       2.5211204
       6743.6178       2.3653065
       6744.4930       2.3224633
       6745.3682       2.6474881
       6746.2433       2.6715407
       6747.1185       2.7512815
       6747.9937       2.7896082
       6748.8689       2.4242199
       6749.7440       2.5948058
       6750.6192       2.7575033
       6751.4944       2.7406144
       6752.3696       2.8555581
       6753.2448       2.7198425
       6754.1199       2.4708308
       6754.9951       2.7493972
       6755.8703       2.6971411
       6756.7455       2.8524201
       6757.6206       2.5045697
       6758.4958       2.5606716
       6759.3710       2.3414573
       6760.2462       2.6924957
       6761.1213       2.4769671
       6761.9965       2.6810178
       6762.8717       2.7183009
       6763.7469       2.9303575
       6764.6221       2.8807399
       6765.4972       2.7371450
       6766.3724       2.5667721
       6767.2476       2.7842552
       6768.1228       2.6624663
       6768.9979       2.9098820
       6769.8731       2.7653241
       6770.7483       2.9001983
       6771.6235       2.9759872
       6772.4986       2.8880357
       6773.3738       2.8529248
       6774.2490       2.8157770
       6775.1242       2.8232665
       6775.9994       2.6302636
       6776.8745       2.5469854
       6777.7497       3.1049428
       6778.6249       2.8933811
       6779.5001       3.2327650
       6780.3752       2.9904489
       6781.2504       3.0777587
       6782.1256       2.7353323
       6783.0008       3.0897501
       6783.8759       2.8448289
       6784.7511       2.7471812
       6785.6263       2.7526274
       6786.5015       2.8282392
       6787.3767       2.7951063
       6788.2518       2.9307657
       6789.1270       3.0255120
       6790.0022       3.1344583
       6790.8774       2.6325655
       6791.7525       3.1393616
       6792.6277       3.1601290
       6793.5029       3.1534102
       6794.3781       2.8832295
       6795.2533       3.0121514
       6796.1284       2.5797691
       6797.0036       2.8501886
       6797.8788       2.8331776
       6798.7540       3.0098645
       6799.6291       2.9241167
       6800.5043       2.8962619
       6801.3795       2.9934221
       6802.2547       3.1726631
       6803.1298       2.8866797
       6804.0050       2.7472772
       6804.8802       2.8624628
       6805.7554       3.1100593
       6806.6306       2.8884440
       6807.5057       3.0793554
       6808.3809       2.6226371
       6809.2561       2.9021102
       6810.1313       2.7208269
       6811.0064       3.0710950
       6811.8816       2.7540682
       6812.7568       2.7390441
       6813.6320       2.7720926
       6814.5071       2.8630122
       6815.3823       2.8185309
       6816.2575       2.8380329
       6817.1327       2.9854714
       6818.0079       3.0995609
       6818.8830       2.7837147
       6819.7582       2.9469221
       6820.6334       2.8549570
       6821.5086       2.8797032
       6822.3837       2.7620490
       6823.2589       2.9126409
       6824.1341       2.9151852
       6825.0093       3.1087351
       6825.8844       2.9372988
       6826.7596       3.1189045
       6827.6348       3.0500387
       6828.5100       3.0093971
       6829.3852       2.9252035
       6830.2603       2.5944334
       6831.1355       2.8174604
       6832.0107       2.8950035
       6832.8859       2.8914774
       6833.7610       2.8678737
       6834.6362       2.7061810
       6835.5114       2.9126222
       6836.3866       2.9503578
       6837.2617       3.0631719
       6838.1369       2.6753286
       6839.0121       2.7762879
       6839.8873       2.7436283
       6840.7625       2.6918747
       6841.6376       2.8093965
       6842.5128       3.2193935
       6843.3880       2.7813848
       6844.2632       2.5320913
       6845.1383       2.8809547
       6846.0135       2.6792961
       6846.8887       2.9845175
       6847.7639       2.9942287
       6848.6391       2.6502980
       6849.5142       2.6957071
       6850.3894       2.6720927
       6851.2646       2.5825707
       6852.1398       2.0760438
       6853.0149       2.4870820
       6853.8901       2.5769482
       6854.7653       1.9924996
       6855.6405       1.6936144
       6856.5156       2.8178158
       6857.3908       1.4861038
       6858.2660       2.3945067
       6859.1412       2.0891654
       6860.0164       1.7975822
       6860.8915       2.3418821
       6861.7667       1.6039017
       6862.6419       1.7785289
       6863.5171       2.1681949
       6864.3922       2.0841709
       6865.2674       2.4666875
       6866.1426       1.7666117
       6867.0178       1.6856207
       6867.8929       1.2115868
       6868.7681       1.5469625
       6869.6433       1.4943967
       6870.5185       2.5939300
       6871.3937       1.9825410
       6872.2688       2.1428130
       6873.1440       2.0507177
       6874.0192       2.0810210
       6874.8944       2.0034528
       6875.7695       1.9691461
       6876.6447       1.6225712
       6877.5199       1.9602591
       6878.3951       2.2752881
       6879.2702       2.2583702
       6880.1454       1.9930280
       6881.0206       1.5944054
       6881.8958       1.2073079
       6882.7710       1.6152233
       6883.6461       1.5126628
       6884.5213       1.6119048
       6885.3965       2.2083200
       6886.2717       2.6468243
       6887.1468       2.7725292
       6888.0220       2.3913947
       6888.8972       2.2363126
       6889.7724       2.3082647
       6890.6476       1.7756553
       6891.5227       1.8244109
       6892.3979       1.9523079
       6893.2731       1.8487337
       6894.1483       2.3896082
       6895.0234       2.1860518
       6895.8986       2.2377328
       6896.7738       2.3377483
       6897.6490       2.2413536
       6898.5241       2.3159934
       6899.3993       2.5909574
       6900.2745       2.1282538
       6901.1497       1.7353158
       6902.0249       1.4725939
       6902.9000       1.0650581
       6903.7752       1.7098894
       6904.6504      0.49338589
       6905.5256       1.0427465
       6906.4007       1.2951153
       6907.2759       2.0113157
       6908.1511       2.9706082
       6909.0263       2.8822460
       6909.9014       2.1059934
       6910.7766       1.8638862
       6911.6518       2.2103448
       6912.5270       2.0198322
       6913.4022       2.1406836
       6914.2773       2.2926915
       6915.1525       2.5135517
       6916.0277       2.5353273
       6916.9029       2.7476479
       6917.7780       3.1710028
       6918.6532       2.7493747
       6919.5284       3.2246152
       6920.4036       2.7267055
       6921.2787       2.0724142
       6922.1539       2.7092778
       6923.0291       2.4576844
       6923.9043       2.2990022
       6924.7795       2.1001638
       6925.6546       1.2929047
       6926.5298       2.6722376
       6927.4050       2.7333113
       6928.2802       2.9754867
       6929.1553       2.6646677
       6930.0305       2.5086546
       6930.9057       2.6847887
       6931.7809       2.3967529
       6932.6560       2.7339493
       6933.5312       2.8079216
       6934.4064       2.4344314
       6935.2816       2.3860805
       6936.1568       3.2526126
       6937.0319       2.2786540
       6937.9071       2.1689883
       6938.7823       2.9902858
       6939.6575       3.4021144
       6940.5326       2.9003474
       6941.4078       2.4059177
       6942.2830       1.9570603
       6943.1582       1.8774091
       6944.0334       1.8270717
       6944.9085       1.8273811
       6945.7837       2.0486115
       6946.6589       2.5682348
       6947.5341       2.7823953
       6948.4092       2.9219535
       6949.2844       2.2310602
       6950.1596       3.0052276
       6951.0348       3.4388698
       6951.9099       2.1664371
       6952.7851       1.9259800
       6953.6603       4.5710534
       6954.5355       4.8305180
       6955.4107       3.1254369
       6956.2858       1.9443202
       6957.1610       2.7022683
       6958.0362       2.3929243
       6958.9114       3.0876891
       6959.7865       2.6555319
       6960.6617       2.8830168
       6961.5369       2.6371396
       6962.4121       2.2475333
       6963.2872       2.0297426
       6964.1624       2.1843811
       6965.0376      0.90005476
       6965.9128       2.3186927
       6966.7880       1.8377092
       6967.6631       2.2516279
       6968.5383       2.0994229
       6969.4135       2.2077894
       6970.2887       2.2065497
       6971.1638       2.4800401
       6972.0390       2.5268249
       6972.9142       2.7963706
       6973.7894       2.3492422
       6974.6645       1.6700395
       6975.5397       1.7051936
       6976.4149      0.26821500
       6977.2901      0.71342606
       6978.1653       1.3404847
       6979.0404       2.2092584
       6979.9156       1.6264954
       6980.7908       1.5446691
       6981.6660       1.7607966
       6982.5411       1.4725732
       6983.4163       2.1549875
       6984.2915       2.0564252
       6985.1667       2.3972431
       6986.0418       2.6435398
       6986.9170       2.8172513
       6987.7922       2.7616658
       6988.6674       3.0311501
       6989.5426       2.8571247
       6990.4177       2.3110602
       6991.2929       2.4410785
       6992.1681       2.6164957
       6993.0433       2.2278096
       6993.9184       2.2143451
       6994.7936       1.9844050
       6995.6688       1.3315724
       6996.5440       1.3662396
       6997.4192       2.3545569
       6998.2943       2.3742797
       6999.1695       2.6845587
       7000.0447       2.2460838
       7000.9199       3.2966823
       7001.7950       3.3618746
       7002.6702       2.8064725
       7003.5454       3.3210513
       7004.4206       2.8860501
       7005.2957       2.6950615
       7006.1709       2.9487687
       7007.0461       2.3267985
       7007.9213       2.2456177
       7008.7965       2.5388195
       7009.6716       2.0576672
       7010.5468       3.7936409
       7011.4220       2.7345283
       7012.2972       2.4276289
       7013.1723       2.6189634
       7014.0475       2.8457965
       7014.9227       2.5121352
       7015.7979       2.5938875
       7016.6730       2.5268403
       7017.5482       2.6582231
       7018.4234       3.0259466
       7019.2986       2.8765015
       7020.1738       2.6403938
       7021.0489       2.5591470
       7021.9241       2.9728595
       7022.7993       2.6577089
       7023.6745       2.8518607
       7024.5496       3.2153409
       7025.4248       2.8443035
       7026.3000       2.5029495
       7027.1752       2.5140566
       7028.0503       2.7778462
       7028.9255       2.6132173
       7029.8007       2.7440430
       7030.6759       2.4540825
       7031.5511       2.1875585
       7032.4262       2.2522244
       7033.3014       1.8988858
       7034.1766       2.5671834
       7035.0518       2.6937594
       7035.9269       1.6423320
       7036.8021       1.8277048
       7037.6773       2.9732701
       7038.5525       2.8928697
       7039.4277       2.6706091
       7040.3028       2.7174628
       7041.1780       2.6681985
       7042.0532       2.7011314
       7042.9284       1.6212881
       7043.8035       2.3726031
       7044.6787       2.9272686
       7045.5539       2.0674945
       7046.4291       3.3246417
       7047.3042       3.2397390
       7048.1794       2.7879823
       7049.0546       3.4490087
       7049.9298       3.3854695
       7050.8050       3.3303554
       7051.6801       3.3175315
       7052.5553       3.4066607
       7053.4305       3.1754288
       7054.3057       2.7557232
       7055.1808       2.8336084
       7056.0560       3.0410924
       7056.9312       3.1453376
       7057.8064       3.0998098
       7058.6815       2.9477553
       7059.5567       3.0135545
       7060.4319       2.9609812
       7061.3071       2.6658061
       7062.1823       2.9020256
       7063.0574       2.6573772
       7063.9326       2.6436200
       7064.8078       2.8516424
       7065.6830       3.0595992
       7066.5581       2.9530517
       7067.4333       2.6750118
       7068.3085       2.8537382
       7069.1837       3.0808951
       7070.0588       3.0113842
       7070.9340       2.8055422
       7071.8092       2.4495049
       7072.6844       2.3379099
       7073.5596       2.4591620
       7074.4347       2.0573263
       7075.3099       2.7212098
       7076.1851       2.9658827
       7077.0603       2.5594769
       7077.9354       2.6986144
       7078.8106       2.7145245
       7079.6858       2.8864449
       7080.5610       3.0067817
       7081.4361       2.3808292
       7082.3113       2.4219179
       7083.1865       2.2146894
       7084.0617       1.9727626
       7084.9369       2.3704432
       7085.8120       2.6182227
       7086.6872       3.1378254
       7087.5624       2.7028422
       7088.4376       2.7603585
       7089.3127       3.1354461
       7090.1879       2.9388847
       7091.0631       3.3008458
       7091.9383       3.3774473
       7092.8135       3.1737435
       7093.6886       2.9870970
       7094.5638       2.9282164
       7095.4390       2.7166344
       7096.3142       2.9008522
       7097.1893       2.6732931
       7098.0645       2.7719959
       7098.9397       2.8932024
       7099.8149       2.8096060
       7100.6900       2.8158008
       7101.5652       2.7704299
       7102.4404       2.9635857
       7103.3156       2.8164923
       7104.1908       2.8756287
       7105.0659       2.8825827
       7105.9411       3.0041913
       7106.8163       2.8350435
       7107.6915       2.8884203
       7108.5666       2.9804862
       7109.4418       3.0523501
       7110.3170       3.0886241
       7111.1922       3.0253170
       7112.0673       3.1111243
       7112.9425       2.6247233
       7113.8177       2.8284234
       7114.6929       2.8445512
       7115.5681       2.5690126
       7116.4432       2.5438044
       7117.3184       2.2275206
       7118.1936       3.5346387
       7119.0688       2.9117811
       7119.9439       2.5073634
       7120.8191       3.3684437
       7121.6943       2.8069389
       7122.5695       3.0139154
       7123.4446       2.8628734
       7124.3198       2.8138373
       7125.1950       3.1655371
       7126.0702       2.9759283
       7126.9454       2.7703949
       7127.8205       3.5288248
       7128.6957       2.9950268
       7129.5709       3.0633941
       7130.4461       3.1921981
       7131.3212       3.4750946
       7132.1964       3.3481410
       7133.0716       3.1301766
       7133.9468       3.0324971
       7134.8220       3.7083405
       7135.6971       3.4173044
       7136.5723       3.5107540
       7137.4475       3.0189370
       7138.3227       2.2825625
       7139.1978       1.7575171
       7140.0730       2.9092795
       7140.9482       3.0113975
       7141.8234       3.7977271
       7142.6985       2.6234641
       7143.5737       3.2839473
       7144.4489       3.3220593
       7145.3241       2.7483748
       7146.1993       2.7878309
       7147.0744       3.3100950
       7147.9496       2.9068587
       7148.8248       2.8732002
       7149.7000       3.4250049
       7150.5751       2.5765035
       7151.4503       3.1385269
       7152.3255       3.5635831
       7153.2007       3.0445549
       7154.0758       3.1180783
       7154.9510       2.3694628
       7155.8262       3.6919476
       7156.7014       2.1133192
       7157.5766       2.2483179
       7158.4517       3.3154483
       7159.3269       3.6922561
       7160.2021       3.0092321
       7161.0773       3.0150049
       7161.9524       3.1557681
       7162.8276       3.4469280
       7163.7028       3.3573898
       7164.5780       3.3390806
       7165.4531       3.8107957
       7166.3283       2.8738817
       7167.2035       2.9925101
       7168.0787       3.2161037
       7168.9539       3.3769861
       7169.8290       3.2977816
       7170.7042       2.8799939
       7171.5794       3.2416575
       7172.4546       2.9638402
       7173.3297       2.8348967
       7174.2049       2.4917636
       7175.0801       2.9959340
       7175.9553       2.7670989
       7176.8304       2.4847055
       7177.7056       3.2164819
       7178.5808       2.7056407
       7179.4560       2.4931440
       7180.3312       3.0265063
       7181.2063       3.0514965
       7182.0815       2.7688066
       7182.9567       3.0118454
       7183.8319       2.7698908
       7184.7070       3.1629548
       7185.5822       2.6169708
       7186.4574       2.8343199
       7187.3326       3.0693996
       7188.2078       2.6170625
       7189.0829       3.0511960
       7189.9581       3.2425332
       7190.8333       2.9076818
       7191.7085       3.1667645
       7192.5836       3.1185508
       7193.4588       3.4802031
       7194.3340       3.3141114
       7195.2092       3.2011862
       7196.0843       3.2363469
       7196.9595       3.0637086
       7197.8347       2.9864763
       7198.7099       2.9357591
       7199.5851       3.0051963
       7200.4602       2.8710009
       7201.3354       2.7088672
       7202.2106       2.7826020
       7203.0858       2.9539967
       7203.9609       2.8364952
       7204.8361       2.5206189
       7205.7113       2.6856748
       7206.5865       2.1704656
       7207.4616       1.9974757
       7208.3368       2.2873576
       7209.2120       3.0813405
       7210.0872       2.9358064
       7210.9624       3.1068510
       7211.8375       2.8046703
       7212.7127       2.7715386
       7213.5879       2.7141809
       7214.4631       2.8750235
       7215.3382       3.4085051
       7216.2134       2.8842291
       7217.0886       3.1521126
       7217.9638       3.0587696
       7218.8389       2.9189736
       7219.7141       3.4273934
       7220.5893       3.2407800
       7221.4645       2.8719336
       7222.3397       3.0192090
       7223.2148       2.8447783
       7224.0900       3.1624897
       7224.9652       2.6803125
       7225.8404       3.0063970
       7226.7155       2.9289381
       7227.5907       2.9786596
       7228.4659       2.9692137
       7229.3411       3.3611960
       7230.2163       3.3017362
       7231.0914       2.6550858
       7231.9666       3.0951650
       7232.8418       3.0391113
       7233.7170       3.6867450
       7234.5921       2.7175532
       7235.4673       2.8882869
       7236.3425       3.4295476
       7237.2177       3.2290044
       7238.0928       2.7041823
       7238.9680       2.9818946
       7239.8432       2.8400135
       7240.7184       3.3667697
       7241.5936       3.1438575
       7242.4687       3.2997128
       7243.3439       3.7240804
       7244.2191       2.8579736
       7245.0943       3.1807840
       7245.9694       3.2489595
       7246.8446       3.5397019
       7247.7198       2.4836872
       7248.5950       3.0839425
       7249.4701       4.1427317
       7250.3453       2.9052333
       7251.2205       2.8450446
       7252.0957       2.6813822
       7252.9709       3.5026763
       7253.8460       2.9297212
       7254.7212       3.3661344
       7255.5964       3.4834224
       7256.4716       2.8763519
       7257.3467       3.1215848
       7258.2219       3.0657015
       7259.0971       2.8969930
       7259.9723       3.0311713
       7260.8474       2.8272766
       7261.7226       3.0891302
       7262.5978       3.1599964
       7263.4730       3.2301561
       7264.3482       2.5899544
       7265.2233       1.2971468
       7266.0985       2.7720081
       7266.9737       4.2418481
       7267.8489       4.8387947
       7268.7240       3.8029795
       7269.5992       5.2568876
       7270.4744       4.2041450
       7271.3496       2.5934813
       7272.2247       2.9450301
       7273.0999       3.1180691
       7273.9751       2.8433932
       7274.8503       3.2863317
       7275.7255       2.9306816
       7276.6006       3.0775489
       7277.4758       3.2216110
       7278.3510       3.5334930
       7279.2262       3.1759914
       7280.1013       3.2062435
       7280.9765       2.7831975
       7281.8517       2.6015763
       7282.7269       3.2749198
       7283.6021       4.0121071
       7284.4772       2.8911595
       7285.3524       3.6040611
       7286.2276       3.1909222
       7287.1028       3.3251870
       7287.9779       3.0524884
       7288.8531       3.0527185
       7289.7283       3.2286917
       7290.6035       2.7445159
       7291.4786       3.2246051
       7292.3538       3.2629702
       7293.2290       3.2729903
       7294.1042       3.0588821
       7294.9794       2.7720854
       7295.8545       1.5993448
       7296.7297       2.4106328
       7297.6049       2.9505034
       7298.4801       3.0215686
       7299.3552       3.5326668
       7300.2304       4.2320810
       7301.1056       4.5323963
       7301.9808       2.7309662
       7302.8559       2.3653006
       7303.7311       2.8726902
       7304.6063       3.1041003
       7305.4815       2.8451963
       7306.3567       2.8856885
       7307.2318       2.8624524
       7308.1070       3.1542516
       7308.9822       3.0238902
       7309.8574       3.1214353
       7310.7325       3.3694767
       7311.6077       3.1377252
       7312.4829       2.6946779
       7313.3581       3.0000942
       7314.2332       3.2664913
       7315.1084       2.8436252
       7315.9836       1.8521987
       7316.8588       3.8801449
       7317.7340       2.9475018
       7318.6091       2.4793981
       7319.4843       2.5469416
       7320.3595       3.9128129
       7321.2347       3.7323694
       7322.1098       1.8319882
       7322.9850       2.6011466
       7323.8602       2.7945062
       7324.7354       4.2718018
       7325.6105       2.3675309
       7326.4857       1.4721306
       7327.3609       2.1573284
       7328.2361       2.5212875
       7329.1113       3.3571196
       7329.9864       1.8130634
       7330.8616       2.5603661
       7331.7368       5.2485048
       7332.6120       4.0309878
       7333.4871       1.3204007
       7334.3623       3.0651067
       7335.2375       4.7322905
       7336.1127       3.2477057
       7336.9879       2.6621696
       7337.8630       2.4444158
       7338.7382       2.8293761
       7339.6134       3.6617446
       7340.4886       2.8154014
       7341.3637       2.6343043
       7342.2389       2.6544981
       7343.1141       2.9123911
       7343.9893       3.3207670
       7344.8644       2.7267950
       7345.7396       2.5149007
       7346.6148       2.5918022
       7347.4900       2.8799125
       7348.3652       3.0711541
       7349.2403       3.1420395
       7350.1155       2.8815179
       7350.9907       3.0734489
       7351.8659       2.8632854
       7352.7410       3.3751285
       7353.6162       3.1834312
       7354.4914       2.6321726
       7355.3666       3.2073612
       7356.2417       3.0264842
       7357.1169       2.6170768
       7357.9921       3.1305392
       7358.8673       2.7912437
       7359.7425       2.7890448
       7360.6176       2.9998584
       7361.4928       3.2324715
       7362.3680       3.4476168
       7363.2432       3.4465834
       7364.1183       2.7879821
       7364.9935       2.4689850
       7365.8687       2.8649023
       7366.7439       2.1842340
       7367.6190      0.50664773
       7368.4942       1.9772265
       7369.3694       2.7883633
       7370.2446       3.7814282
       7371.1198       3.8255623
       7371.9949       2.7123248
       7372.8701       5.4144514
       7373.7453       1.9132389
       7374.6205       2.1922223
       7375.4956       2.8805422
       7376.3708       2.6542168
       7377.2460      0.80109950
       7378.1212       3.4764995
       7378.9964       2.3463957
       7379.8715       3.1912870
       7380.7467       5.4635193
       7381.6219       3.6422078
       7382.4971       3.6018019
       7383.3722       2.5903969
       7384.2474       2.4528128
       7385.1226       3.1914298
       7385.9978       3.2847657
       7386.8729       2.8423401
       7387.7481       3.0223407
       7388.6233       2.4595443
       7389.4985       3.5876123
       7390.3737       2.5044925
       7391.2488       2.9184363
       7392.1240       4.2850941
       7392.9992       3.3863544
       7393.8744       3.5706453
       7394.7495       3.3742264
       7395.6247       3.5360291
       7396.4999       2.7334622
       7397.3751       3.3541077
       7398.2502       2.9765740
       7399.1254       2.8121468
       7400.0006       2.6780114
       7400.8758       2.9241060
       7401.7510       3.2339733
       7402.6261       2.7203088
       7403.5013       3.8899243
       7404.3765       2.6618719
       7405.2517       4.6318866
       7406.1268       4.1103799
       7407.0020       3.4902106
       7407.8772       3.8685352
       7408.7524       3.2905853
       7409.6275       2.5292275
       7410.5027       2.0336763
       7411.3779       3.4783423
       7412.2531       4.0859803
       7413.1283       3.4946134
       7414.0034       2.8187218
       7414.8786       3.4378324
       7415.7538       4.2846836
       7416.6290       4.7378769
       7417.5041       4.1729973
       7418.3793       3.8523754
       7419.2545       8.1983192
       7420.1297       7.4072441
       7421.0048       5.8729080
       7421.8800       6.3862541
       7422.7552       6.0556716
       7423.6304       6.9682672
       7424.5056       5.8317414
       7425.3807       6.3223082
       7426.2559       4.2788424
       7427.1311       4.3371979
       7428.0063       5.1613772
       7428.8814       6.2063791
       7429.7566       4.4928510
       7430.6318       3.5779965
       7431.5070       2.3539675
       7432.3822       3.1073193
       7433.2573       3.2831959
       7434.1325      0.90799570
       7435.0077       1.8361106
       7435.8829      -1.0435707
       7436.7580       1.1955412
       7437.6332       2.9064651
       7438.5084       3.6099435
       7439.3836       3.1942097
       7440.2587       2.1840987
       7441.1339       2.7676907
       7442.0091       3.4611224
       7442.8843       2.8624524
       7443.7595       2.7166191
       7444.6346       2.9227802
       7445.5098       3.0401684
       7446.3850       2.7906340
       7447.2602       2.7879902
       7448.1353       2.6807214
       7449.0105      0.88377315
       7449.8857       3.8311047
       7450.7609       3.3278221
       7451.6360       4.1003527
       7452.5112       3.4579346
       7453.3864       3.4809851
       7454.2616       5.2645731
       7455.1368      0.83387715
       7456.0119       1.9273317
       7456.8871       2.7472166
       7457.7623       2.9837255
       7458.6375       2.3466619
       7459.5126       2.1966443
       7460.3878       2.6139402
       7461.2630       2.4514987
       7462.1382       2.8142350
       7463.0133       2.8371875
       7463.8885       3.1860849
       7464.7637       3.0936571
       7465.6389       2.5326268
       7466.5141       2.8711074
       7467.3892       2.2927808
       7468.2644       3.0421552
       7469.1396       2.4323652
       7470.0148       1.8157030
       7470.8899       4.2890302
       7471.7651       3.5399110
       7472.6403       3.3345626
       7473.5155       1.8611058
       7474.3907       2.9102094
       7475.2658       3.5596363
       7476.1410       1.9941138
       7477.0162       3.2574868
       7477.8914       2.5352179
       7478.7665       2.6238579
       7479.6417       2.5763278
       7480.5169       2.4414752
       7481.3921       1.8663169
       7482.2672       2.7352952
       7483.1424       1.3295335
       7484.0176       3.5907352
       7484.8928       2.9663584
       7485.7680       3.7156880
       7486.6431       1.2004886
       7487.5183       3.5423460
       7488.3935       2.7797478
       7489.2687       3.3070294
       7490.1438       1.3998345
       7491.0190       1.4626518
       7491.8942       2.2853708
       7492.7694       1.9019513
       7493.6445       1.7520678
       7494.5197       2.5693938
       7495.3949       2.4545309
       7496.2701       2.2245293
       7497.1453      0.45159710
       7498.0204       2.5959353
       7498.8956       2.3781812
       7499.7708       2.5918170
       7500.6460       3.0848278
       7501.5211       3.3067993
       7502.3963       3.2161970
       7503.2715       1.1184377
       7504.1467       2.1669457
       7505.0218       2.9342083
       7505.8970       2.3919633
       7506.7722       2.2649985
       7507.6474       2.5056472
       7508.5226       2.0413723
       7509.3977       2.1318013
       7510.2729       2.4562289
       7511.1481       1.6306583
       7512.0233       2.7914981
       7512.8984       1.7767634
       7513.7736       4.5035973
       7514.6488       2.0092493
       7515.5240       2.8013612
       7516.3991       2.2970237
       7517.2743       3.1842331
       7518.1495       3.2632431
       7519.0247       1.6573071
       7519.8999       2.1987835
       7520.7750       2.6056036
       7521.6502       1.6963010
