# wavelength flux
       2841.0993     0.023838341
       2842.0606     0.038543897
       2843.0218    -0.024259169
       2843.9831    -0.015486999
       2844.9444      0.14948003
       2845.9056   -0.0048034412
       2846.8669    -0.072916369
       2847.8282    -0.060107680
       2848.7894     0.036179218
       2849.7507     0.053892400
       2850.7120     0.034219913
       2851.6732      0.11284630
       2852.6345     0.056765591
       2853.5958     0.071227514
       2854.5570     0.063729616
       2855.5183      0.17435708
       2856.4796      0.10477033
       2857.4408     0.079140477
       2858.4021     0.016422630
       2859.3634      0.11730713
       2860.3246      0.17450209
       2861.2859   0.00025302604
       2862.2472    0.0028378340
       2863.2084     0.029585387
       2864.1697     0.026161612
       2865.1310     0.015791509
       2866.0922     0.064550975
       2867.0535     0.032837889
       2868.0148     0.011216522
       2868.9760      0.10359838
       2869.9373     0.084462579
       2870.8986     0.014707902
       2871.8598      0.10765838
       2872.8211     0.029228591
       2873.7824      0.13065573
       2874.7436     0.014565433
       2875.7049     0.038245783
       2876.6662     0.039500192
       2877.6274     0.073438073
       2878.5887     0.080617410
       2879.5500      0.10197096
       2880.5112      0.14217798
       2881.4725     0.018373472
       2882.4338      0.13200551
       2883.3950      0.15251280
       2884.3563     0.082390989
       2885.3176    0.0051501213
       2886.2788      0.10299455
       2887.2401     0.036299663
       2888.2014     0.079065161
       2889.1626     0.039522588
       2890.1239     0.052119403
       2891.0852      0.10267166
       2892.0464      0.11326610
       2893.0077     0.018734582
       2893.9690  -0.00075571151
       2894.9302      0.13842590
       2895.8915     0.082430581
       2896.8528     0.061557159
       2897.8140     0.018672892
       2898.7753      0.13764237
       2899.7366    0.0025824897
       2900.6978   -0.0021882654
       2901.6591     0.083529903
       2902.6204    -0.010602930
       2903.5816     0.025000002
       2904.5429      0.14746478
       2905.5042     0.089579426
       2906.4654      0.16724772
       2907.4267     0.070626193
       2908.3880      0.15344723
       2909.3492     0.067146017
       2910.3105     0.038296605
       2911.2718      0.12077050
       2912.2330   -0.0055662678
       2913.1943      0.10852607
       2914.1556     0.075511570
       2915.1168      0.19280900
       2916.0781     0.069483489
       2917.0394      0.11633213
       2918.0006     0.045666533
       2918.9619     0.094988667
       2919.9232     0.039350360
       2920.8844     0.064981792
       2921.8457    -0.020061102
       2922.8070      0.12368412
       2923.7682     0.035826278
       2924.7295     0.042785284
       2925.6908     0.029461415
       2926.6520   -0.0064874326
       2927.6133     0.041553787
       2928.5746     0.091935148
       2929.5358   -0.0087748887
       2930.4971     0.038073131
       2931.4584     0.019934767
       2932.4196     0.040454715
       2933.3809     0.063975494
       2934.3422      0.12641323
       2935.3034     0.031872884
       2936.2647      0.17068296
       2937.2260     0.088790358
       2938.1872     0.021644251
       2939.1485     0.094629257
       2940.1098     0.039645692
       2941.0710     0.017381071
       2942.0323     0.049966717
       2942.9936     0.061866406
       2943.9548     0.086990435
       2944.9161     0.051374605
       2945.8774     0.033022578
       2946.8386      0.13576097
       2947.7999     0.073860505
       2948.7612     0.061667976
       2949.7224      0.11541752
       2950.6837     0.072436508
       2951.6450     0.025626836
       2952.6062     0.073233192
       2953.5675      0.10498622
       2954.5288      0.12147453
       2955.4900      0.13513436
       2956.4513      0.11811660
       2957.4126      0.17243413
       2958.3738     0.075131934
       2959.3351     0.080859177
       2960.2964     0.060126596
       2961.2576     0.039214839
       2962.2189    -0.079655702
       2963.1802     0.047197149
       2964.1414     0.034671608
       2965.1027     0.011653850
       2966.0640    0.0017219205
       2967.0252     0.098979592
       2967.9865      0.10518233
       2968.9478   -0.0022781518
       2969.9090     0.076616799
       2970.8703     0.099160011
       2971.8316     0.096248833
       2972.7928     0.054267497
       2973.7541    0.0079578858
       2974.7154     0.067585698
       2975.6766     0.082704931
       2976.6379     0.075358341
       2977.5992     0.036948378
       2978.5604      0.14207640
       2979.5217     0.090516295
       2980.4830      0.16296056
       2981.4442      0.17027712
       2982.4055      0.11398967
       2983.3668     0.047527173
       2984.3280     0.018186221
       2985.2893     0.047384519
       2986.2506     0.056158650
       2987.2118      0.12627245
       2988.1731    0.0027097271
       2989.1344     0.013414516
       2990.0956      0.10166559
       2991.0569      0.14143376
       2992.0182     0.050390102
       2992.9794     0.018808133
       2993.9407     0.094295755
       2994.9020     0.017787225
       2995.8632      0.13663851
       2996.8245     0.090652300
       2997.7858     0.037069968
       2998.7470   -0.0085951551
       2999.7083     0.042832546
       3000.6696     0.074166444
       3001.6308     0.018277651
       3002.5921     0.043474337
       3003.5534     0.093924152
       3004.5146     0.014583017
       3005.4759     0.047882941
       3006.4372     0.052313307
       3007.3984     0.074107456
       3008.3597     0.060866092
       3009.3210     0.012136620
       3010.2822    0.0096287481
       3011.2435     0.045022172
       3012.2048     0.021444798
       3013.1660     0.050136829
       3014.1273     0.071797592
       3015.0886     0.025968867
       3016.0498     0.055175053
       3017.0111     0.079962182
       3017.9724     0.073119021
       3018.9336     0.057422837
       3019.8949     0.059369909
       3020.8562     0.033827887
       3021.8174     0.059215525
       3022.7787     0.079230937
       3023.7400     0.083643306
       3024.7012     0.052538084
       3025.6625     0.068194722
       3026.6238     0.036038400
       3027.5850     0.082709921
       3028.5463     0.073857984
       3029.5076     0.062896426
       3030.4688     0.069815182
       3031.4301     0.047450012
       3032.3914     0.047524944
       3033.3526     0.062585331
       3034.3139    -0.024091639
       3035.2752     0.053578184
       3036.2364   -0.0060851187
       3037.1977     0.073490372
       3038.1590     0.045767627
       3039.1202     0.031471510
       3040.0815     0.012897260
       3041.0428  -0.00059566081
       3042.0040     0.059238911
       3042.9653     0.043776250
       3043.9266     0.032740988
       3044.8878     0.035604735
       3045.8491     0.031220912
       3046.8104     0.069064852
       3047.7716     0.043266726
       3048.7329      0.11299506
       3049.6942     0.031733206
       3050.6554     0.012471883
       3051.6167      0.16088820
       3052.5780     0.089851587
       3053.5392     0.025305610
       3054.5005     0.045163925
       3055.4618     0.075860247
       3056.4230     0.058535953
       3057.3843     0.033215940
       3058.3456      0.11167413
       3059.3068     0.083490681
       3060.2681     0.069566745
       3061.2294     0.040805730
       3062.1906     0.019823163
       3063.1519     0.087554531
       3064.1132      0.10284867
       3065.0744     0.058110301
       3066.0357     0.045048156
       3066.9970     0.048197432
       3067.9582     0.062126039
       3068.9195     0.056693386
       3069.8808     0.052802614
       3070.8420     0.093530013
       3071.8033     0.055659625
       3072.7646   -0.0013921800
       3073.7258     0.077126035
       3074.6871     0.031369243
       3075.6484     0.040734067
       3076.6096     0.030932579
       3077.5709     0.072288785
       3078.5322     0.091403450
       3079.4934     0.040857980
       3080.4547    -0.018262022
       3081.4160      0.10482872
       3082.3772     0.043568710
       3083.3385     0.089440042
       3084.2998    -0.014632171
       3085.2610     0.094868802
       3086.2223     0.023965570
       3087.1836     0.079729341
       3088.1448     0.041185084
       3089.1061     0.048294624
       3090.0674     0.030549685
       3091.0286     0.080576498
       3091.9899     0.022813498
       3092.9512     0.070826779
       3093.9124   0.00081144674
       3094.8737     0.054267492
       3095.8350     0.051069319
       3096.7962      0.10233906
       3097.7575     0.095335698
       3098.7188     0.076687577
       3099.6800     0.071800629
       3100.6413     0.051989505
       3101.6026    -0.040563315
       3102.5638     0.054305322
       3103.5251     0.098218066
       3104.4864     0.046649036
       3105.4476     0.061955554
       3106.4089     0.035046618
       3107.3702     0.033472445
       3108.3314     0.067954905
       3109.2927     0.036462015
       3110.2540     0.030914249
       3111.2152      0.11969718
       3112.1765     0.037131546
       3113.1378     0.020818063
       3114.0990     0.030782152
       3115.0603     0.043113481
       3116.0216     0.022310970
       3116.9828     0.070571216
       3117.9441      0.15210131
       3118.9054     0.011286489
       3119.8666     0.078886925
       3120.8279     0.021015270
       3121.7892     0.012801683
       3122.7504     0.070363853
       3123.7117  -0.00014119115
       3124.6730     0.095768371
       3125.6342     0.023601269
       3126.5955     0.082897257
       3127.5568     0.062838802
       3128.5180      0.10345347
       3129.4793     0.067264999
       3130.4406     0.032571027
       3131.4018     0.076599298
       3132.3631      0.13748759
       3133.3244      0.15234657
       3134.2856     0.061081493
       3135.2469     0.068391252
       3136.2082     0.065107783
       3137.1694     0.070760954
       3138.1307     0.067151237
       3139.0920     0.058955313
       3140.0532     0.012173659
       3141.0145     0.091185855
       3141.9758     0.071785050
       3142.9370      0.11113538
       3143.8983     0.037562480
       3144.8596      0.15230728
       3145.8208     0.096327646
       3146.7821     0.046141319
       3147.7434   -0.0022195292
       3148.7046     0.065794469
       3149.6659     0.081661347
       3150.6272     0.084992724
       3151.5884     0.039595542
       3152.5497     0.091911894
       3153.5110      0.10859426
       3154.4722      0.10511495
       3155.4335     0.067372211
       3156.3948      0.11376974
       3157.3560     0.056513665
       3158.3173      0.10236543
       3159.2786     0.072628375
       3160.2398     0.021675410
       3161.2011      0.15981375
       3162.1624      0.11542038
       3163.1236     0.048354123
       3164.0849     0.072922213
       3165.0462     0.079780874
       3166.0074     0.059213439
       3166.9687     0.090805420
       3167.9300     0.066607989
       3168.8912     0.035710995
       3169.8525     0.055175708
       3170.8138     0.079611049
       3171.7750     0.037564009
       3172.7363     0.061500927
       3173.6976     0.043088670
       3174.6588     0.078432521
       3175.6201     0.069402213
       3176.5814     0.082105763
       3177.5426     0.044674611
       3178.5039    0.0045269559
       3179.4652     0.039423656
       3180.4264    0.0070955177
       3181.3877     0.043210830
       3182.3490     0.030583333
       3183.3102     0.064023039
       3184.2715     0.047092190
       3185.2328     0.088483583
       3186.1940     0.036309815
       3187.1553     0.057838787
       3188.1166     0.064963738
       3189.0778     0.060401529
       3190.0391     0.052782132
       3191.0004     0.050420581
       3191.9616     0.076192363
       3192.9229     0.057287547
       3193.8842     0.094311752
       3194.8454     0.023945722
       3195.8067     0.054029313
       3196.7680     0.062711129
       3197.7292     0.056489608
       3198.6905     0.071928427
       3199.6518     0.089760454
       3200.6130      0.10510051
       3201.5743      0.11386190
       3202.5356     0.078845776
       3203.4968     0.062672117
       3204.4581     0.083650762
       3205.4194     0.056709628
       3206.3806      0.11029477
       3207.3419     0.077166441
       3208.3032     0.061856286
       3209.2644     0.058460871
       3210.2257     0.063429198
       3211.1870     0.050404654
       3212.1482     0.033954284
       3213.1095     0.081146047
       3214.0708     0.089573618
       3215.0320     0.059206353
       3215.9933      0.11010468
       3216.9546     0.086280484
       3217.9158     0.099834487
       3218.8771   -0.0011791190
       3219.8384     0.076930682
       3220.7996     0.048487535
       3221.7609     0.058779536
       3222.7222     0.083646024
       3223.6834     0.051664257
       3224.6447     0.049583654
       3225.6060     0.091560501
       3226.5672     0.032149235
       3227.5285     0.058486914
       3228.4898     0.050216636
       3229.4510      0.11246120
       3230.4123      0.11712388
       3231.3736     0.038389375
       3232.3348     0.052161447
       3233.2961     0.094959502
       3234.2574     0.085043162
       3235.2186     0.069428137
       3236.1799     0.053928686
       3237.1412      0.11980574
       3238.1024      0.11891115
       3239.0637      0.10529179
       3240.0250     0.070160879
       3240.9862    0.0066770883
       3241.9475     0.072923953
       3242.9088     0.032004725
       3243.8700      0.10912122
       3244.8313     0.084291494
       3245.7926     0.040566039
       3246.7538     0.046158590
       3247.7151     0.089239664
       3248.6764     0.026065304
       3249.6376      0.13302437
       3250.5989     0.078873523
       3251.5602      0.10259131
       3252.5214     0.085759498
       3253.4827     0.056906037
       3254.4440     0.078225455
       3255.4052     0.059109542
       3256.3665     0.018913206
       3257.3278     0.076351021
       3258.2890     0.072864850
       3259.2503     0.084383295
       3260.2116      0.12365065
       3261.1728     0.054412449
       3262.1341      0.12468570
       3263.0954      0.15120336
       3264.0566     0.077885222
       3265.0179      0.10806790
       3265.9792     0.053624372
       3266.9404      0.10587058
       3267.9017      0.12007140
       3268.8630     0.083750651
       3269.8242     0.089268564
       3270.7855     0.017862671
       3271.7468     0.096757947
       3272.7080     0.099781515
       3273.6693     0.029748208
       3274.6306     0.053344018
       3275.5918     0.056301237
       3276.5531     0.083063071
       3277.5144    0.0058754731
       3278.4756     0.019255912
       3279.4369     0.064825887
       3280.3982     0.033117395
       3281.3594      0.10795629
       3282.3207     0.087219883
       3283.2820     0.040796546
       3284.2432     0.028967084
       3285.2045      0.10062049
       3286.1658     0.067866083
       3287.1270      0.11039044
       3288.0883      0.10774145
       3289.0496     0.040851957
       3290.0108   0.00076298307
       3290.9721     0.063424183
       3291.9334     0.066878802
       3292.8946     0.098040152
       3293.8559     0.047157915
       3294.8172     0.046399681
       3295.7784      0.10759224
       3296.7397      0.11968039
       3297.7010     0.045959117
       3298.6622      0.11831476
       3299.6235     0.099867657
       3300.5848     0.040182194
       3301.5460     0.084852906
       3302.5073      0.12444664
       3303.4686     0.065320330
       3304.4298     0.099875402
       3305.3911     0.060205989
       3306.3524     0.058931170
       3307.3136     0.091090439
       3308.2749     0.099998047
       3309.2362     0.096488353
       3310.1974     0.068808089
       3311.1587     0.067621976
       3312.1200     0.045741862
       3313.0812     0.073960978
       3314.0425     0.086787208
       3315.0038      0.11784243
       3315.9650     0.073095694
       3316.9263     0.023951309
       3317.8876     0.094246488
       3318.8488      0.11476048
       3319.8101     0.067960303
       3320.7714     0.086919039
       3321.7326     0.069903150
       3322.6939     0.095529138
       3323.6552     0.078614098
       3324.6164      0.15384794
       3325.5777     0.050561581
       3326.5390      0.10278598
       3327.5002      0.10356875
       3328.4615     0.066891355
       3329.4228      0.15514968
       3330.3840     0.087828239
       3331.3453     0.083146275
       3332.3066      0.11464450
       3333.2678      0.12657927
       3334.2291     0.094871837
       3335.1904     0.098435445
       3336.1516    0.0075607982
       3337.1129     0.061233268
       3338.0742     0.094532834
       3339.0354     0.054913032
       3339.9967     0.080910192
       3340.9580     0.028652843
       3341.9192     0.090209874
       3342.8805     0.083304232
       3343.8418     0.057425754
       3344.8030      0.10632136
       3345.7643     0.079712536
       3346.7256     0.075647592
       3347.6868      0.10934214
       3348.6481    -0.010081464
       3349.6094     0.080896714
       3350.5706     0.087655060
       3351.5319     0.031576016
       3352.4932     0.089654483
       3353.4544     0.058511828
       3354.4157     0.037625026
       3355.3770     0.062926457
       3356.3382     0.080672325
       3357.2995     0.091049826
       3358.2608     0.098762515
       3359.2220      0.10515869
       3360.1833     0.018494495
       3361.1446     0.015883318
       3362.1058     0.023824450
       3363.0671      0.10594594
       3364.0284      0.14434063
       3364.9896     0.090235665
       3365.9509     0.072570338
       3366.9122      0.10012506
       3367.8734      0.11321101
       3368.8347     0.088084088
       3369.7960     0.063447294
       3370.7572  -0.00068397346
       3371.7185     0.097489095
       3372.6798     0.043007643
       3373.6410      0.11934416
       3374.6023      0.10293833
       3375.5636      0.11880489
       3376.5248     0.064968297
       3377.4861     0.063529716
       3378.4474      0.12337265
       3379.4086     0.096813383
       3380.3699     0.083815822
       3381.3312     0.073609000
       3382.2924     0.068614936
       3383.2537     0.029481290
       3384.2150      0.13505051
       3385.1762     0.055131053
       3386.1375     0.093083130
       3387.0988     0.061136349
       3388.0600     0.095772019
       3389.0213     0.083584717
       3389.9826      0.11602928
       3390.9438     0.091313843
       3391.9051     0.071303190
       3392.8664     0.077030396
       3393.8276     0.035874940
       3394.7889     0.068415349
       3395.7502     0.087461002
       3396.7114     0.043440470
       3397.6727     0.073447846
       3398.6340     0.052008884
       3399.5952     0.093785003
       3400.5565     0.040003535
       3401.5178     0.043492094
       3402.4790     0.078104432
       3403.4403     0.061354692
       3404.4016      0.12082422
       3405.3628     0.053876210
       3406.3241     0.068412444
       3407.2854     0.044439512
       3408.2466     0.073838827
       3409.2079      0.10716538
       3410.1692     0.049712169
       3411.1304     0.086747257
       3412.0917     0.055237599
       3413.0530     0.044664920
       3414.0142      0.10176164
       3414.9755     0.089328222
       3415.9368     0.026705121
       3416.8980     0.047000246
       3417.8593     0.032936918
       3418.8206     0.085543805
       3419.7818     0.078122643
       3420.7431     0.076333141
       3421.7044     0.066425627
       3422.6656     0.046156932
       3423.6269      0.13688280
       3424.5882     0.089104967
       3425.5494      0.11020980
       3426.5107      0.10343493
       3427.4720      0.11722843
       3428.4332     0.038879579
       3429.3945     0.057173044
       3430.3558     0.086555246
       3431.3170      0.14099965
       3432.2783     0.054598643
       3433.2396     0.095900052
       3434.2008     0.080933655
       3435.1621     0.059897202
       3436.1234     0.057262365
       3437.0846     0.066734914
       3438.0459      0.10850988
       3439.0072     0.042967233
       3439.9684     0.086073328
       3440.9297     0.096339008
       3441.8910     0.073281904
       3442.8522     0.025712875
       3443.8135     0.078806651
       3444.7748     0.087030408
       3445.7360     0.048993294
       3446.6973     0.061638414
       3447.6586     0.050227025
       3448.6198     0.056536702
       3449.5811     0.087049001
       3450.5423      0.10612995
       3451.5036     0.053709085
       3452.4649      0.10250584
       3453.4261     0.080881636
       3454.3874      0.11794776
       3455.3487     0.079461949
       3456.3099     0.086071120
       3457.2712     0.081029653
       3458.2325     0.053150598
       3459.1937     0.088589631
       3460.1550      0.11046907
       3461.1163     0.098547316
       3462.0775     0.070025005
       3463.0388      0.10152805
       3464.0001      0.11061536
       3464.9613     0.084093102
       3465.9226     0.010602108
       3466.8839     0.093549948
       3467.8451     0.097443011
       3468.8064      0.13672962
       3469.7677      0.10344679
       3470.7289     0.020144614
       3471.6902     0.096621520
       3472.6515     0.063815466
       3473.6127     0.078098846
       3474.5740     0.088777800
       3475.5353     0.097447918
       3476.4965      0.13475781
       3477.4578     0.045826694
       3478.4191     0.074350416
       3479.3803      0.15966966
       3480.3416     0.085821464
       3481.3029     0.029163911
       3482.2641     0.071909256
       3483.2254     0.060809796
       3484.1867      0.10040719
       3485.1479     0.051727720
       3486.1092     0.045812581
       3487.0705     0.079851131
       3488.0317      0.11154254
       3488.9930     0.082213953
       3489.9543     0.092795114
       3490.9155     0.083179009
       3491.8768     0.079197111
       3492.8381     0.058535241
       3493.7993     0.066459642
       3494.7606     0.083555876
       3495.7219      0.10407607
       3496.6831     0.047224392
       3497.6444     0.084424235
       3498.6057     0.077814188
       3499.5669     0.065451348
       3500.5282     0.049557739
       3501.4895     0.097109278
       3502.4507     0.089579753
       3503.4120     0.070907665
       3504.3733     0.095939818
       3505.3345     0.050747458
       3506.2958     0.077017081
       3507.2571      0.11104807
       3508.2183     0.093642160
       3509.1796     0.068957978
       3510.1409      0.13887418
       3511.1021     0.086605146
       3512.0634     0.084405828
       3513.0247     0.037955504
       3513.9859     0.056100820
       3514.9472     0.060499589
       3515.9085     0.064728444
       3516.8697     0.080823371
       3517.8310     0.066930739
       3518.7923     0.084154541
       3519.7535     0.080244073
       3520.7148      0.10882394
       3521.6761      0.12490122
       3522.6373      0.11558442
       3523.5986     0.030767528
       3524.5599     0.085560845
       3525.5211     0.081205278
       3526.4824     0.063108215
       3527.4437     0.073718533
       3528.4049     0.060436730
       3529.3662      0.10223001
       3530.3275      0.12197043
       3531.2887     0.090222375
       3532.2500      0.10452110
       3533.2113      0.12472802
       3534.1725     0.070105213
       3535.1338     0.059113736
       3536.0951     0.098900324
       3537.0563      0.12578769
       3538.0176     0.095355144
       3538.9789     0.099838668
       3539.9401      0.11862940
       3540.9014     0.087430100
       3541.8627     0.083637084
       3542.8239      0.10226184
       3543.7852      0.10332217
       3544.7465      0.12926226
       3545.7077      0.10879336
       3546.6690      0.12122980
       3547.6303      0.10631509
       3548.5915      0.13549420
       3549.5528     0.070339286
       3550.5141      0.10823402
       3551.4753     0.081662713
       3552.4366     0.099685352
       3553.3979      0.11772002
       3554.3591     0.063830536
       3555.3204     0.089067434
       3556.2817     0.085412924
       3557.2429     0.079184521
       3558.2042     0.074281213
       3559.1655      0.10462097
       3560.1267      0.10523730
       3561.0880     0.062877494
       3562.0493     0.072364038
       3563.0105     0.087737354
       3563.9718     0.098138889
       3564.9331     0.053819461
       3565.8943     0.099278988
       3566.8556      0.15207396
       3567.8169     0.052857551
       3568.7781      0.10091429
       3569.7394     0.088279768
       3570.7007     0.070116196
       3571.6619     0.070126858
       3572.6232     0.067232002
       3573.5845     0.051622193
       3574.5457     0.090569228
       3575.5070      0.13087720
       3576.4683     0.041777656
       3577.4295      0.12177345
       3578.3908      0.10367139
       3579.3521     0.070605556
       3580.3133     0.085032083
       3581.2746     0.068564971
       3582.2359      0.10027176
       3583.1971      0.13589915
       3584.1584     0.090730123
       3585.1197     0.097782379
       3586.0809     0.092850052
       3587.0422     0.070347242
       3588.0035      0.13869354
       3588.9647     0.082259664
       3589.9260      0.10881030
       3590.8873     0.091149470
       3591.8485     0.080986396
       3592.8098     0.099134314
       3593.7711     0.019767574
       3594.7323      0.10767220
       3595.6936      0.10264445
       3596.6549     0.089466127
       3597.6161     0.098307038
       3598.5774      0.10961679
       3599.5387      0.14663152
       3600.4999      0.12011257
       3601.4612     0.052080972
       3602.4225     0.096208159
       3603.3837      0.11010969
       3604.3450      0.13543854
       3605.3063     0.048774553
       3606.2675      0.10338126
       3607.2288      0.11405482
       3608.1901      0.10486634
       3609.1513      0.15205017
       3610.1126     0.079529227
       3611.0739     0.070621680
       3612.0351      0.14267257
       3612.9964     0.095837768
       3613.9577      0.13149903
       3614.9189     0.093483753
       3615.8802     0.090007735
       3616.8415      0.15086486
       3617.8027      0.11434083
       3618.7640      0.12318150
       3619.7253      0.10989838
       3620.6865     0.057015672
       3621.6478      0.13677876
       3622.6091     0.069995351
       3623.5703      0.10024625
       3624.5316      0.10141074
       3625.4929      0.18701279
       3626.4541      0.12005726
       3627.4154     0.069668413
       3628.3767     0.062392514
       3629.3379      0.12533251
       3630.2992     0.088873715
       3631.2605     0.091868925
       3632.2217      0.11880868
       3633.1830     0.089474614
       3634.1443     0.077420914
       3635.1055     0.067150644
       3636.0668     0.079767064
       3637.0281      0.11902665
       3637.9893     0.092928885
       3638.9506     0.059395604
       3639.9119      0.10257034
       3640.8731      0.12380109
       3641.8344      0.11646197
       3642.7957      0.13331944
       3643.7569      0.11095416
       3644.7182     0.035563134
       3645.6795      0.13375078
       3646.6407     0.088006272
       3647.6020     0.067088244
       3648.5633      0.14364079
       3649.5245     0.092478991
       3650.4858      0.12582603
       3651.4471     0.069690068
       3652.4083     0.083271686
       3653.3696     0.089955220
       3654.3309      0.14196036
       3655.2921     0.073276616
       3656.2534      0.13976769
       3657.2147     0.046217115
       3658.1759      0.16343800
       3659.1372      0.15559791
       3660.0985      0.12317052
       3661.0597     0.078073094
       3662.0210      0.13352932
       3662.9823     0.076639314
       3663.9435     0.072086343
       3664.9048      0.11411081
       3665.8661      0.10382946
       3666.8273      0.16367899
       3667.7886     0.090034770
       3668.7499      0.17286083
       3669.7111      0.10206894
       3670.6724     0.068833726
       3671.6337      0.12880768
       3672.5949      0.14481434
       3673.5562     0.097221364
       3674.5175      0.10493065
       3675.4787     0.086981541
       3676.4400      0.10224005
       3677.4013     0.068901367
       3678.3625     0.089819287
       3679.3238     0.089097600
       3680.2851     0.091130608
       3681.2463      0.14582987
       3682.2076     0.074366186
       3683.1689      0.14083041
       3684.1301     0.049735010
       3685.0914     0.065424946
       3686.0527     0.065447451
       3687.0139      0.11092609
       3687.9752     0.074938497
       3688.9365     0.030897517
       3689.8977      0.12445126
       3690.8590      0.11543195
       3691.8203      0.11889695
       3692.7815      0.14758288
       3693.7428      0.12077142
       3694.7041     0.094493074
       3695.6653      0.10633801
       3696.6266      0.17742494
       3697.5879      0.11471133
       3698.5491     0.087318433
       3699.5104      0.14161809
       3700.4717     0.088587835
       3701.4329     0.098949345
       3702.3942      0.16308133
       3703.3555     0.085490229
       3704.3167     0.077874661
       3705.2780      0.10544858
       3706.2393      0.12693564
       3707.2005     0.041353617
       3708.1618      0.11164540
       3709.1231      0.12471785
       3710.0843     0.051449246
       3711.0456      0.10656700
       3712.0069      0.12319651
       3712.9681     0.079697254
       3713.9294      0.12050499
       3714.8907      0.16523417
       3715.8519      0.12597437
       3716.8132      0.12235876
       3717.7745      0.12984289
       3718.7357      0.12734777
       3719.6970     0.042296449
       3720.6583      0.18066958
       3721.6195      0.12056538
       3722.5808      0.20639589
       3723.5421      0.24698496
       3724.5033      0.31457204
       3725.4646      0.45008890
       3726.4259      0.67207875
       3727.3871      0.74247543
       3728.3484      0.80862432
       3729.3097      0.61675470
       3730.2709      0.51893101
       3731.2322      0.40964866
       3732.1935      0.30901578
       3733.1547      0.18101857
       3734.1160     0.098323823
       3735.0773     0.094145293
       3736.0385     0.076337728
       3736.9998      0.11367772
       3737.9611      0.11775036
       3738.9223      0.12616625
       3739.8836      0.10948084
       3740.8449      0.12064047
       3741.8061      0.16662939
       3742.7674      0.13554992
       3743.7287      0.11789076
       3744.6899      0.10949742
       3745.6512     0.097550989
       3746.6125      0.10499372
       3747.5737      0.11618073
       3748.5350      0.14441997
       3749.4963     0.055078009
       3750.4575      0.10558097
       3751.4188      0.14717388
       3752.3801      0.10394212
       3753.3413      0.12062008
       3754.3026     0.091506770
       3755.2639      0.13860434
       3756.2251      0.11337554
       3757.1864      0.20339033
       3758.1477      0.16054121
       3759.1089     0.083409118
       3760.0702     0.090168172
       3761.0315      0.14888610
       3761.9927      0.13426563
       3762.9540      0.15112909
       3763.9153      0.17388050
       3764.8765      0.11058373
       3765.8378      0.13555223
       3766.7991      0.14372437
       3767.7603      0.11283932
       3768.7216      0.10096987
       3769.6829      0.15908443
       3770.6441      0.11352873
       3771.6054      0.13349364
       3772.5667      0.13335751
       3773.5279      0.13263033
       3774.4892      0.14449349
       3775.4505      0.16463488
       3776.4117      0.21673992
       3777.3730      0.15490639
       3778.3343      0.15532266
       3779.2955      0.10574013
       3780.2568      0.19917832
       3781.2181      0.19993900
       3782.1793      0.20261460
       3783.1406      0.16622197
       3784.1019      0.15569934
       3785.0631      0.15781618
       3786.0244      0.18786357
       3786.9857      0.15987035
       3787.9469      0.20979713
       3788.9082      0.20167553
       3789.8695      0.18705259
       3790.8307     0.067509092
       3791.7920      0.14493216
       3792.7533      0.12117584
       3793.7145     0.099707432
       3794.6758      0.17062686
       3795.6371     0.089412656
       3796.5983      0.13889154
       3797.5596     0.061368752
       3798.5209      0.13812795
       3799.4821      0.15208293
       3800.4434      0.16874800
       3801.4047      0.13851737
       3802.3659      0.12689086
       3803.3272      0.21518710
       3804.2885      0.16357869
       3805.2497      0.18705491
       3806.2110      0.19241256
       3807.1723      0.17401529
       3808.1335      0.18573387
       3809.0948      0.12300800
       3810.0561      0.19526556
       3811.0173      0.20258124
       3811.9786      0.15613565
       3812.9399      0.16921441
       3813.9011      0.17249826
       3814.8624      0.20405830
       3815.8237      0.20649575
       3816.7849      0.18317441
       3817.7462      0.19282680
       3818.7075      0.17784244
       3819.6687      0.13908730
       3820.6300      0.20433136
       3821.5913      0.16069687
       3822.5525      0.23269104
       3823.5138      0.20675203
       3824.4751      0.16165637
       3825.4363      0.18180526
       3826.3976      0.13137964
       3827.3589      0.16258499
       3828.3201      0.17654845
       3829.2814      0.18409040
       3830.2427      0.14454829
       3831.2039      0.11073630
       3832.1652     0.055970277
       3833.1265     0.076333570
       3834.0877      0.14020156
       3835.0490      0.13005398
       3836.0103     0.066581265
       3836.9715     0.081405181
       3837.9328      0.17160698
       3838.8941     0.068803942
       3839.8553      0.14324983
       3840.8166      0.11601370
       3841.7779      0.18095017
       3842.7391      0.12694234
       3843.7004      0.13311896
       3844.6617      0.19423566
       3845.6229      0.16993190
       3846.5842      0.15689770
       3847.5455      0.20844878
       3848.5067      0.14012154
       3849.4680      0.11561903
       3850.4293      0.24570664
       3851.3905      0.20086057
       3852.3518      0.20645390
       3853.3131      0.19534532
       3854.2743      0.21895755
       3855.2356      0.20242338
       3856.1969      0.16513893
       3857.1581      0.16623757
       3858.1194      0.18903444
       3859.0807      0.17527209
       3860.0419      0.10520873
       3861.0032      0.22151374
       3861.9645      0.16195382
       3862.9257      0.18411724
       3863.8870      0.14639078
       3864.8483      0.21249175
       3865.8095      0.21462995
       3866.7708      0.19191104
       3867.7321      0.21883680
       3868.6933      0.26863551
       3869.6546      0.20575530
       3870.6159      0.18759770
       3871.5771      0.18642973
       3872.5384      0.19128157
       3873.4997      0.17286947
       3874.4609      0.21679711
       3875.4222      0.18665555
       3876.3835      0.17347891
       3877.3447      0.15008149
       3878.3060      0.17556890
       3879.2673      0.15143181
       3880.2285      0.19484781
       3881.1898      0.15034314
       3882.1511      0.15630002
       3883.1123      0.16337468
       3884.0736      0.16838415
       3885.0349      0.20055178
       3885.9961      0.19124416
       3886.9574      0.18626347
       3887.9187      0.15821517
       3888.8799     0.093833377
       3889.8412      0.13534457
       3890.8025      0.16963923
       3891.7637      0.15173821
       3892.7250      0.13135905
       3893.6863      0.19546471
       3894.6475      0.17196693
       3895.6088      0.14020453
       3896.5701      0.13291203
       3897.5313      0.18570079
       3898.4926      0.15921039
       3899.4539      0.21295633
       3900.4151      0.23331466
       3901.3764      0.17282228
       3902.3377      0.25530351
       3903.2989      0.14638362
       3904.2602      0.21903206
       3905.2215      0.15672452
       3906.1827      0.17758286
       3907.1440      0.21248151
       3908.1053      0.24941511
       3909.0665      0.17954638
       3910.0278      0.22164566
       3910.9891      0.22568407
       3911.9503      0.19381025
       3912.9116      0.17983783
       3913.8729      0.15151983
       3914.8341      0.22095232
       3915.7954      0.21451908
       3916.7567      0.20280717
       3917.7179      0.19964536
       3918.6792      0.16141007
       3919.6405      0.17403070
       3920.6017      0.14174843
       3921.5630      0.21366899
       3922.5243      0.23289219
       3923.4855      0.18871497
       3924.4468      0.22798993
       3925.4081      0.19514290
       3926.3693      0.21650369
       3927.3306      0.18889369
       3928.2919      0.19322920
       3929.2531     0.091555787
       3930.2144     0.069481883
       3931.1757      0.11002268
       3932.1369      0.10002650
       3933.0982     0.094610670
       3934.0595      0.12965200
       3935.0207      0.18317293
       3935.9820      0.23732111
       3936.9433      0.20647023
       3937.9045      0.19701477
       3938.8658      0.18676699
       3939.8271      0.28253274
       3940.7883      0.17637106
       3941.7496     0.096517156
       3942.7109      0.20085417
       3943.6721      0.21068296
       3944.6334      0.16468060
       3945.5947      0.27529365
       3946.5559      0.24646399
       3947.5172      0.17642331
       3948.4785      0.22540698
       3949.4397      0.18988869
       3950.4010      0.14516317
       3951.3623      0.22856046
       3952.3235      0.18448129
       3953.2848      0.21234902
       3954.2461      0.20103601
       3955.2073      0.16605587
       3956.1686      0.18773880
       3957.1299      0.22326110
       3958.0911      0.10471484
       3959.0524      0.18695079
       3960.0137     0.099904783
       3960.9749      0.12180476
       3961.9362     0.050363471
       3962.8975      0.14332527
       3963.8587     0.087246713
       3964.8200      0.12921319
       3965.7813      0.19747167
       3966.7425      0.18297808
       3967.7038     0.093622195
       3968.6651      0.12475036
       3969.6263      0.15122319
       3970.5876      0.13328609
       3971.5489      0.11143119
       3972.5101      0.14159921
       3973.4714      0.21920835
       3974.4327      0.22977590
       3975.3939      0.17497792
       3976.3552      0.22136228
       3977.3165      0.16299417
       3978.2777      0.23334646
       3979.2390      0.20161189
       3980.2003      0.22319128
       3981.1615      0.19669958
       3982.1228      0.21479603
       3983.0841      0.16214757
       3984.0453      0.16816229
       3985.0066      0.22268506
       3985.9679      0.16736033
       3986.9291      0.17991344
       3987.8904      0.20771118
       3988.8517      0.21224681
       3989.8129      0.19810130
       3990.7742      0.26834469
       3991.7355      0.24823376
       3992.6967      0.21719112
       3993.6580      0.24932913
       3994.6193      0.31137041
       3995.5805      0.20797995
       3996.5418      0.20624601
       3997.5031      0.22041467
       3998.4643      0.23546512
       3999.4256      0.24886864
       4000.3869      0.27857399
       4001.3481      0.26268402
       4002.3094      0.18908410
       4003.2707      0.20336810
       4004.2319      0.22976512
       4005.1932      0.20608137
       4006.1545      0.17473459
       4007.1157      0.19793748
       4008.0770      0.31677546
       4009.0383      0.20399576
       4009.9995      0.20177606
       4010.9608      0.21955831
       4011.9221      0.27905594
       4012.8833      0.21886951
       4013.8446      0.25637215
       4014.8059      0.21133301
       4015.7671      0.28487444
       4016.7284      0.25362104
       4017.6897      0.23985139
       4018.6509      0.27140492
       4019.6122      0.28337064
       4020.5735      0.14432953
       4021.5347      0.25140365
       4022.4960      0.17717818
       4023.4573      0.19645555
       4024.4185      0.17703307
       4025.3798      0.25899987
       4026.3411      0.24606745
       4027.3023      0.21372696
       4028.2636      0.21932328
       4029.2249      0.25011805
       4030.1861      0.23566608
       4031.1474      0.26784070
       4032.1087      0.23491138
       4033.0699      0.27965046
       4034.0312      0.17013309
       4034.9925      0.18357016
       4035.9537      0.24514474
       4036.9150      0.22690875
       4037.8763      0.29250230
       4038.8375      0.25565015
       4039.7988      0.17579213
       4040.7601      0.22548241
       4041.7213      0.23287468
       4042.6826      0.20979285
       4043.6439      0.14882583
       4044.6051      0.30000546
       4045.5664      0.22065214
       4046.5277      0.22762615
       4047.4889      0.25390239
       4048.4502      0.24425635
       4049.4115      0.20880013
       4050.3727      0.13903347
       4051.3340      0.28436660
       4052.2953      0.23782091
       4053.2565      0.23176038
       4054.2178      0.15384894
       4055.1791      0.23589062
       4056.1403      0.22091073
       4057.1016      0.22926945
       4058.0629      0.25453027
       4059.0241      0.23113079
       4059.9854      0.23560565
       4060.9467      0.27866301
       4061.9079      0.22583832
       4062.8692      0.14232144
       4063.8305      0.19558475
       4064.7917      0.29258827
       4065.7530      0.27861310
       4066.7143      0.25189669
       4067.6755      0.23813196
       4068.6368      0.20190818
       4069.5981      0.24859722
       4070.5593      0.23708772
       4071.5206      0.17333105
       4072.4819      0.19300122
       4073.4431      0.19615022
       4074.4044      0.22817864
       4075.3657      0.23683960
       4076.3269      0.21985646
       4077.2882      0.22209869
       4078.2495      0.24414839
       4079.2107      0.21694374
       4080.1720      0.17902667
       4081.1333      0.17462333
       4082.0945      0.25899667
       4083.0558      0.27631091
       4084.0171      0.24355227
       4084.9783      0.20034965
       4085.9396      0.24882568
       4086.9009      0.22966953
       4087.8621      0.22493699
       4088.8234      0.18928332
       4089.7847      0.16638865
       4090.7459      0.10285105
       4091.7072      0.14700996
       4092.6685      0.14893593
       4093.6297      0.21128686
       4094.5910      0.17611108
       4095.5523      0.21663621
       4096.5135      0.27403979
       4097.4748      0.17576042
       4098.4361      0.13870101
       4099.3973      0.18530890
       4100.3586      0.21570353
       4101.3199      0.19737485
       4102.2811      0.21224309
       4103.2424      0.21042635
       4104.2036      0.20611918
       4105.1649      0.17036711
       4106.1262      0.21695990
       4107.0874      0.24822577
       4108.0487      0.27965506
       4109.0100      0.22656358
       4109.9712      0.17988509
       4110.9325      0.20734521
       4111.8938      0.25316606
       4112.8550      0.26960953
       4113.8163      0.26161161
       4114.7776      0.22852223
       4115.7388      0.23591266
       4116.7001      0.20930225
       4117.6614      0.23168708
       4118.6226      0.18486598
       4119.5839      0.21360709
       4120.5452      0.23219157
       4121.5064      0.23239279
       4122.4677      0.27609131
       4123.4290      0.15316726
       4124.3902      0.21456295
       4125.3515      0.33639717
       4126.3128      0.27537181
       4127.2740      0.25352575
       4128.2353      0.24000147
       4129.1966      0.21100803
       4130.1578      0.16782151
       4131.1191      0.25234023
       4132.0804      0.30856903
       4133.0416      0.22456063
       4134.0029      0.22467906
       4134.9642      0.24179469
       4135.9254      0.25782178
       4136.8867      0.19680445
       4137.8480      0.24373305
       4138.8092      0.23227352
       4139.7705      0.21351226
       4140.7318      0.28142634
       4141.6930      0.14755289
       4142.6543      0.19031663
       4143.6156      0.30979338
       4144.5768      0.25260043
       4145.5381      0.23694574
       4146.4994      0.17088889
       4147.4606      0.21553066
       4148.4219      0.24077344
       4149.3832      0.23875600
       4150.3444      0.21015268
       4151.3057      0.26117413
       4152.2670      0.27665597
       4153.2282      0.31705875
       4154.1895      0.23214080
       4155.1508      0.18756731
       4156.1120      0.21738297
       4157.0733      0.25404703
       4158.0346      0.20938263
       4158.9958      0.20264031
       4159.9571      0.20484636
       4160.9184      0.20803392
       4161.8796      0.24452878
       4162.8409      0.20423460
       4163.8022      0.23958459
       4164.7634      0.21654568
       4165.7247      0.16488583
       4166.6860      0.22935997
       4167.6472      0.25362409
       4168.6085      0.29724655
       4169.5698      0.17526827
       4170.5310      0.25142955
       4171.4923      0.24749670
       4172.4536      0.29895716
       4173.4148      0.27321098
       4174.3761      0.24443942
       4175.3374      0.31251474
       4176.2986      0.21343003
       4177.2599      0.24055080
       4178.2212      0.21346665
       4179.1824      0.22203667
       4180.1437      0.29681444
       4181.1050      0.25525092
       4182.0662      0.25238110
       4183.0275      0.21911522
       4183.9888      0.19285027
       4184.9500      0.24606986
       4185.9113      0.21808037
       4186.8726      0.28175531
       4187.8338      0.17426990
       4188.7951      0.27720595
       4189.7564      0.16977717
       4190.7176      0.23507625
       4191.6789      0.25965881
       4192.6402      0.25492019
       4193.6014      0.21307212
       4194.5627      0.24837302
       4195.5240      0.28994018
       4196.4852      0.28539265
       4197.4465      0.27787609
       4198.4078      0.24670010
       4199.3690      0.33286528
       4200.3303      0.27853995
       4201.2916      0.24356651
       4202.2528      0.24798660
       4203.2141      0.23310612
       4204.1754      0.27747480
       4205.1366      0.22553609
       4206.0979      0.25032547
       4207.0592      0.21472241
       4208.0204      0.27630809
       4208.9817      0.27911632
       4209.9430      0.26359576
       4210.9042      0.24495331
       4211.8655      0.29223720
       4212.8268      0.24420045
       4213.7880      0.23788289
       4214.7493      0.18263276
       4215.7106      0.24444128
       4216.6718      0.27699458
       4217.6331      0.18343527
       4218.5944      0.18141081
       4219.5556      0.21621448
       4220.5169      0.24849412
       4221.4782      0.21882039
       4222.4394      0.25971586
       4223.4007      0.21324848
       4224.3620      0.27106732
       4225.3232      0.23233734
       4226.2845      0.34942782
       4227.2458      0.23169283
       4228.2070      0.19210709
       4229.1683      0.21789024
       4230.1296      0.27436799
       4231.0908      0.22297369
       4232.0521      0.26156088
       4233.0134      0.31465621
       4233.9746      0.25478291
       4234.9359      0.27989359
       4235.8972      0.26285996
       4236.8584      0.25904274
       4237.8197      0.32355745
       4238.7810      0.26485003
       4239.7422      0.21526829
       4240.7035      0.26289864
       4241.6648      0.26841745
       4242.6260      0.23139863
       4243.5873      0.31622244
       4244.5486      0.31583762
       4245.5098      0.25846116
       4246.4711      0.24476564
       4247.4324      0.21288332
       4248.3936      0.25866477
       4249.3549      0.29319039
       4250.3162      0.23733801
       4251.2774      0.28976616
       4252.2387      0.28851890
       4253.2000      0.27448155
       4254.1612      0.26518283
       4255.1225      0.31406190
       4256.0838      0.30376948
       4257.0450      0.26547630
       4258.0063      0.30594241
       4258.9676      0.29206372
       4259.9288      0.32930434
       4260.8901      0.28189260
       4261.8514      0.13919800
       4262.8126      0.25024457
       4263.7739      0.30593492
       4264.7352      0.27853748
       4265.6964      0.32588673
       4266.6577      0.20897434
       4267.6190      0.21978974
       4268.5802      0.28967053
       4269.5415      0.22869043
       4270.5028      0.26268476
       4271.4640      0.29710521
       4272.4253      0.26049208
       4273.3866      0.21161737
       4274.3478      0.19701996
       4275.3091      0.25782142
       4276.2704      0.26804478
       4277.2316      0.32440467
       4278.1929      0.19909502
       4279.1542      0.19658469
       4280.1154      0.23009290
       4281.0767      0.24466449
       4282.0380      0.20629116
       4282.9992      0.17692424
       4283.9605      0.27435569
       4284.9218      0.28566822
       4285.8830      0.27865591
       4286.8443      0.23489044
       4287.8056      0.21429917
       4288.7668      0.27084975
       4289.7281      0.24830618
       4290.6894      0.26968436
       4291.6506      0.29813120
       4292.6119      0.21901338
       4293.5732      0.21446950
       4294.5344      0.21957474
       4295.4957      0.26908644
       4296.4570      0.31424036
       4297.4182      0.20982267
       4298.3795      0.25322732
       4299.3408      0.26299940
       4300.3020      0.24295573
       4301.2633      0.28835855
       4302.2246      0.28979781
       4303.1858      0.20950949
       4304.1471      0.23057582
       4305.1084      0.22457718
       4306.0696      0.28584679
       4307.0309      0.31146639
       4307.9922      0.32637539
       4308.9534      0.32501746
       4309.9147      0.27325503
       4310.8760      0.26735664
       4311.8372      0.27824776
       4312.7985      0.22359158
       4313.7598      0.26289259
       4314.7210      0.26540799
       4315.6823      0.24384875
       4316.6436      0.26969185
       4317.6048      0.28995491
       4318.5661      0.14658312
       4319.5274      0.32508673
       4320.4886      0.24815479
       4321.4499      0.23034230
       4322.4112      0.20808202
       4323.3724      0.21782231
       4324.3337      0.22655401
       4325.2950      0.28018667
       4326.2562      0.35154841
       4327.2175      0.39241231
       4328.1788      0.30769107
       4329.1400      0.36023187
       4330.1013      0.31989198
       4331.0626      0.16747578
       4332.0238      0.24830821
       4332.9851      0.18962532
       4333.9464     0.079361612
       4334.9076      0.20541704
       4335.8689      0.19343291
       4336.8302      0.22333259
       4337.7914      0.30902043
       4338.7527      0.18915023
       4339.7140      0.28694628
       4340.6752      0.26298311
       4341.6365      0.25699265
       4342.5978      0.24757139
       4343.5590      0.25070770
       4344.5203      0.20578671
       4345.4816      0.20899309
       4346.4428      0.30628993
       4347.4041      0.19588202
       4348.3654      0.30030558
       4349.3266      0.23395274
       4350.2879      0.28810967
       4351.2492      0.31574126
       4352.2104      0.33416640
       4353.1717      0.27992587
       4354.1330      0.27832874
       4355.0942      0.23563390
       4356.0555      0.18450805
       4357.0168      0.26304457
       4357.9780      0.25639840
       4358.9393      0.24760380
       4359.9006      0.23020159
       4360.8618      0.23902604
       4361.8231      0.20338904
       4362.7844      0.24967609
       4363.7456      0.32974368
       4364.7069      0.31666622
       4365.6682      0.31443614
       4366.6294      0.31727138
       4367.5907      0.24977238
       4368.5520      0.26151841
       4369.5132      0.26940031
       4370.4745      0.20362708
       4371.4358      0.15106130
       4372.3970      0.26226938
       4373.3583      0.24240401
       4374.3196      0.21606522
       4375.2808      0.27936064
       4376.2421      0.24729189
       4377.2034      0.32837216
       4378.1646      0.25353123
       4379.1259      0.23210741
       4380.0872      0.19507002
       4381.0484      0.22086765
       4382.0097      0.24387755
       4382.9710      0.20270810
       4383.9322      0.21900687
       4384.8935      0.29634371
       4385.8548      0.28871286
       4386.8160      0.21085545
       4387.7773      0.30445444
       4388.7386      0.22440327
       4389.6998      0.26364935
       4390.6611      0.22951544
       4391.6224      0.25223890
       4392.5836      0.31827589
       4393.5449      0.20613741
       4394.5062      0.28618830
       4395.4674      0.31093808
       4396.4287      0.28077171
       4397.3900      0.18771126
       4398.3512      0.27836342
       4399.3125      0.22449574
       4400.2738      0.31030994
       4401.2350      0.34011527
       4402.1963      0.26794970
       4403.1576      0.21031676
       4404.1188      0.36046847
       4405.0801      0.28538550
       4406.0414      0.27636904
       4407.0026      0.35354411
       4407.9639      0.30913341
       4408.9252      0.31665398
       4409.8864      0.21743833
       4410.8477      0.39150409
       4411.8090      0.27483185
       4412.7702      0.25189988
       4413.7315      0.35607626
       4414.6928      0.24641744
       4415.6540      0.23940399
       4416.6153      0.27951909
       4417.5766      0.27926443
       4418.5378      0.24528156
       4419.4991      0.29552636
       4420.4604      0.31746970
       4421.4216      0.30633056
       4422.3829      0.23376847
       4423.3442      0.36953137
       4424.3054      0.29563163
       4425.2667      0.38293462
       4426.2280      0.26254582
       4427.1892      0.14269278
       4428.1505      0.32256477
       4429.1118      0.27073219
       4430.0730      0.27420201
       4431.0343      0.22049756
       4431.9956      0.25414175
       4432.9568      0.23986424
       4433.9181      0.26283618
       4434.8794      0.33574171
       4435.8406      0.26183418
       4436.8019      0.28600019
       4437.7632      0.24168854
       4438.7244      0.31187840
       4439.6857      0.17006786
       4440.6470      0.28716632
       4441.6082      0.20956484
       4442.5695      0.16059081
       4443.5308      0.25093098
       4444.4920      0.22468877
       4445.4533      0.14854260
       4446.4146      0.26549891
       4447.3758      0.32104714
       4448.3371      0.24864815
       4449.2984      0.20270735
       4450.2596      0.25665870
       4451.2209      0.25538999
       4452.1822      0.20755901
       4453.1434      0.16959666
       4454.1047      0.32739182
       4455.0660      0.23307486
       4456.0272      0.26447051
       4456.9885      0.39225769
       4457.9498      0.36899233
       4458.9110      0.28767482
       4459.8723      0.23507109
       4460.8336      0.28026355
       4461.7948      0.38847734
       4462.7561      0.36268049
       4463.7174      0.21531722
       4464.6786      0.25281786
       4465.6399      0.23548138
       4466.6012      0.27778037
       4467.5624      0.31929023
       4468.5237      0.28143336
       4469.4850      0.28798469
       4470.4462      0.31818124
       4471.4075      0.30768176
       4472.3688      0.27489887
       4473.3300      0.35005730
       4474.2913      0.18451115
       4475.2526      0.24842462
       4476.2138      0.31593802
       4477.1751      0.22309001
       4478.1364      0.31817012
       4479.0976      0.21606894
       4480.0589      0.25845552
       4481.0202      0.25806466
       4481.9814      0.22309039
       4482.9427      0.29326042
       4483.9040      0.25061010
       4484.8652      0.24650202
       4485.8265      0.29439963
       4486.7878      0.31250921
       4487.7490      0.32250623
       4488.7103      0.37735733
       4489.6716      0.29835987
       4490.6328      0.30629101
       4491.5941      0.31281817
       4492.5554      0.36119572
       4493.5166      0.29663565
       4494.4779      0.26182428
       4495.4392      0.33136869
       4496.4004      0.25707082
       4497.3617      0.19849959
       4498.3230      0.31888791
       4499.2842      0.17612483
       4500.2455      0.28507367
       4501.2068      0.23451052
       4502.1680      0.28678336
       4503.1293      0.23717996
       4504.0906      0.29128819
       4505.0518      0.17992633
       4506.0131      0.28588466
       4506.9744      0.23668716
       4507.9356      0.23238030
       4508.8969      0.35656087
       4509.8582      0.29075368
       4510.8194      0.17242674
       4511.7807      0.23918867
       4512.7420      0.32313380
       4513.7032      0.26870425
       4514.6645      0.23673702
       4515.6258      0.28848967
       4516.5870      0.34070246
       4517.5483      0.29389250
       4518.5096      0.29098927
       4519.4708      0.31217568
       4520.4321      0.33178860
       4521.3934      0.26877265
       4522.3546      0.24651189
       4523.3159      0.21177559
       4524.2772      0.32027810
       4525.2384      0.25033192
       4526.1997      0.21435265
       4527.1610      0.25017301
       4528.1222      0.26144288
       4529.0835      0.22662819
       4530.0448      0.34479513
       4531.0060      0.28772645
       4531.9673      0.31372684
       4532.9286      0.28566474
       4533.8898      0.27996537
       4534.8511      0.32163286
       4535.8124      0.28407568
       4536.7736      0.27439607
       4537.7349      0.31370964
       4538.6962      0.21701419
       4539.6574      0.19050158
       4540.6187      0.27836770
       4541.5800      0.30402961
       4542.5412      0.28408256
       4543.5025      0.20788872
       4544.4638      0.24707716
       4545.4250      0.34205949
       4546.3863      0.26338966
       4547.3476      0.31305044
       4548.3088      0.31378646
       4549.2701      0.20925532
       4550.2314      0.28313324
       4551.1926      0.25241056
       4552.1539      0.29804482
       4553.1152      0.21923887
       4554.0764      0.29162796
       4555.0377      0.22837039
       4555.9990      0.20197166
       4556.9602      0.22517476
       4557.9215      0.26479036
       4558.8828      0.20453194
       4559.8440      0.32829618
       4560.8053      0.22791474
       4561.7666      0.30940812
       4562.7278      0.23014425
       4563.6891      0.26692324
       4564.6504      0.33477316
       4565.6116      0.30101753
       4566.5729      0.24019868
       4567.5342      0.35207906
       4568.4954      0.22994703
       4569.4567      0.24875024
       4570.4180      0.25893750
       4571.3792      0.29155601
       4572.3405      0.21098038
       4573.3018      0.23461327
       4574.2630      0.28625422
       4575.2243      0.21759111
       4576.1856      0.18255686
       4577.1468      0.32755081
       4578.1081      0.30563140
       4579.0694      0.24686383
       4580.0306      0.21756865
       4580.9919      0.18799345
       4581.9532      0.22543513
       4582.9144      0.22625147
       4583.8757      0.24652229
       4584.8370      0.26673964
       4585.7982      0.30283977
       4586.7595      0.30546490
       4587.7208      0.28176611
       4588.6820      0.29036728
       4589.6433      0.34225886
       4590.6046      0.29851242
       4591.5658      0.20331402
       4592.5271      0.31393969
       4593.4884      0.28673836
       4594.4496      0.30929203
       4595.4109      0.21861335
       4596.3722      0.25584277
       4597.3334      0.17551488
       4598.2947      0.30285951
       4599.2560      0.24481470
       4600.2172      0.21469877
       4601.1785      0.26348897
       4602.1398      0.27792475
       4603.1010      0.33464964
       4604.0623      0.24064338
       4605.0236      0.15565878
       4605.9848      0.28901577
       4606.9461      0.26341764
       4607.9074      0.29501855
       4608.8686      0.18623845
       4609.8299      0.34060321
       4610.7912      0.32497051
       4611.7524      0.27954131
       4612.7137      0.36476843
       4613.6750      0.27248344
       4614.6362      0.27242771
       4615.5975      0.21516727
       4616.5588      0.33497256
       4617.5200      0.29972477
       4618.4813      0.25612366
       4619.4426      0.25698042
       4620.4038      0.31033198
       4621.3651      0.27161708
       4622.3264      0.26482426
       4623.2876      0.31045722
       4624.2489      0.24386504
       4625.2102      0.26663542
       4626.1714      0.26205760
       4627.1327      0.30529937
       4628.0940      0.31034770
       4629.0552      0.26739262
       4630.0165      0.34871323
       4630.9778      0.23458755
       4631.9390      0.34251812
       4632.9003      0.18154843
       4633.8616      0.20144895
       4634.8228      0.22684651
       4635.7841      0.29426758
       4636.7454      0.33745076
       4637.7066      0.29741315
       4638.6679      0.20011048
       4639.6292      0.22357441
       4640.5904      0.24803639
       4641.5517      0.35756865
       4642.5130      0.21267613
       4643.4742      0.20836377
       4644.4355      0.18561530
       4645.3968      0.22732917
       4646.3580      0.34854101
       4647.3193      0.22992919
       4648.2806      0.20284739
       4649.2418      0.34487277
       4650.2031      0.26401432
       4651.1644      0.28806688
       4652.1256      0.26983193
       4653.0869      0.23012111
       4654.0482      0.21134020
       4655.0094      0.21752903
       4655.9707      0.28734304
       4656.9320      0.37895818
       4657.8932      0.25668983
       4658.8545      0.30986330
       4659.8158      0.24681699
       4660.7770      0.30529643
       4661.7383      0.32726270
       4662.6996      0.24175514
       4663.6608      0.27891038
       4664.6221      0.20345899
       4665.5834      0.38322586
       4666.5446      0.31284415
       4667.5059      0.21009109
       4668.4672      0.25657965
       4669.4284      0.23411471
       4670.3897      0.32814938
       4671.3510      0.25901093
       4672.3122      0.22410762
       4673.2735      0.26974874
       4674.2348      0.20972113
       4675.1960      0.18327147
       4676.1573      0.20688351
       4677.1186      0.33258090
       4678.0798      0.31111621
       4679.0411      0.20996921
       4680.0024      0.26420656
       4680.9636      0.22714342
       4681.9249      0.32510956
       4682.8862      0.24501302
       4683.8474      0.29172432
       4684.8087      0.26805928
       4685.7700      0.15800359
       4686.7312      0.25041442
       4687.6925      0.20191037
       4688.6538      0.17878869
       4689.6150      0.27564876
       4690.5763      0.34134551
       4691.5376      0.28024879
       4692.4988      0.16945296
       4693.4601      0.25902416
       4694.4214      0.23669209
       4695.3826      0.25282983
       4696.3439      0.16647465
       4697.3052      0.22454780
       4698.2664      0.29058367
       4699.2277      0.17356428
       4700.1890      0.27784014
       4701.1502      0.23744051
       4702.1115      0.30280446
       4703.0728      0.22847500
       4704.0340      0.31981656
       4704.9953      0.13737695
       4705.9566      0.22065995
       4706.9178      0.29585078
       4707.8791      0.20423444
       4708.8404      0.26931086
       4709.8016      0.26289190
       4710.7629      0.27910250
       4711.7242      0.22190940
       4712.6854      0.24286466
       4713.6467      0.21849533
       4714.6080      0.25520770
       4715.5692      0.31595000
       4716.5305      0.33136336
       4717.4918      0.31785444
       4718.4530      0.16457588
       4719.4143      0.24055879
       4720.3756      0.28944740
       4721.3368      0.26115057
       4722.2981      0.21146978
       4723.2594      0.15179194
       4724.2206      0.36630245
       4725.1819      0.26376726
       4726.1432      0.24109045
       4727.1044      0.27536924
       4728.0657      0.40999307
       4729.0270      0.41344610
       4729.9882      0.33140533
       4730.9495      0.24567765
       4731.9108      0.31982009
       4732.8720      0.24224670
       4733.8333      0.36266981
       4734.7946      0.35161971
       4735.7558      0.21036372
       4736.7171      0.26661204
       4737.6784      0.34404589
       4738.6396      0.39862245
       4739.6009      0.26385449
       4740.5622      0.28288131
       4741.5234      0.25200707
       4742.4847      0.31977059
       4743.4460      0.30980888
       4744.4072      0.34664526
       4745.3685      0.34937632
       4746.3298      0.32607625
       4747.2910      0.33393251
       4748.2523      0.39727678
       4749.2136      0.36212997
       4750.1748      0.27779208
       4751.1361      0.29040535
       4752.0974      0.28514076
       4753.0586      0.38529004
       4754.0199      0.29163766
       4754.9811      0.25146654
       4755.9424      0.29317302
       4756.9037      0.29861073
       4757.8649      0.24559890
       4758.8262      0.26750462
       4759.7875      0.35562040
       4760.7487      0.31760874
       4761.7100      0.36342616
       4762.6713      0.25027795
       4763.6325      0.33717147
       4764.5938      0.28224026
       4765.5551      0.33677376
       4766.5163      0.30410701
       4767.4776      0.35122745
       4768.4389      0.40834986
       4769.4001      0.23889525
       4770.3614      0.30967229
       4771.3227      0.25877549
       4772.2839      0.40094236
       4773.2452      0.34247197
       4774.2065      0.33249107
       4775.1677      0.29447879
       4776.1290      0.24640266
       4777.0903      0.35507870
       4778.0515      0.30623622
       4779.0128      0.26899265
       4779.9741      0.31966308
       4780.9353      0.29743883
       4781.8966      0.16819521
       4782.8579      0.30906834
       4783.8191      0.19472185
       4784.7804      0.30045711
       4785.7417      0.28232700
       4786.7029      0.34392380
       4787.6642      0.31963383
       4788.6255      0.37450674
       4789.5867      0.23869910
       4790.5480      0.40170998
       4791.5093      0.34986192
       4792.4705      0.24960941
       4793.4318      0.27007183
       4794.3931      0.32420127
       4795.3543      0.30199026
       4796.3156      0.31983772
       4797.2769      0.20559918
       4798.2381      0.27283280
       4799.1994      0.33709206
       4800.1607      0.35748626
       4801.1219      0.34041520
       4802.0832      0.34261423
       4803.0445      0.34862718
       4804.0057      0.39236318
       4804.9670      0.38214812
       4805.9283      0.27500351
       4806.8895      0.34324270
       4807.8508      0.35265911
       4808.8121      0.23853330
       4809.7733      0.33991283
       4810.7346      0.33360073
       4811.6959      0.33745599
       4812.6571      0.26391725
       4813.6184      0.34482500
       4814.5797      0.28537538
       4815.5409      0.27890881
       4816.5022      0.22678385
       4817.4635      0.29570576
       4818.4247      0.27053077
       4819.3860      0.24801780
       4820.3473      0.25724634
       4821.3085      0.28642447
       4822.2698      0.22171442
       4823.2311      0.29223422
       4824.1923      0.30534063
       4825.1536      0.23809626
       4826.1149      0.24076577
       4827.0761      0.38483073
       4828.0374      0.48154590
       4828.9987      0.61765767
       4829.9599      0.53340111
       4830.9212      0.56166721
       4831.8825      0.60851340
       4832.8437      0.55869549
       4833.8050      0.44696999
       4834.7663      0.34762556
       4835.7275      0.28249259
       4836.6888      0.24109464
       4837.6501      0.24279787
       4838.6113      0.36810986
       4839.5726      0.36456859
       4840.5339      0.31425971
       4841.4951      0.37671883
       4842.4564      0.25573336
       4843.4177      0.36862279
       4844.3789      0.36303839
       4845.3402      0.25694336
       4846.3015      0.30001576
       4847.2627      0.33793630
       4848.2240      0.33653075
       4849.1853      0.36333424
       4850.1465      0.35126699
       4851.1078      0.25753563
       4852.0691      0.31597931
       4853.0303      0.25479419
       4853.9916      0.24361879
       4854.9529      0.30740517
       4855.9141      0.23765526
       4856.8754      0.35836684
       4857.8367      0.28189428
       4858.7979      0.34934030
       4859.7592      0.27054712
       4860.7205      0.29589304
       4861.6817      0.32154276
       4862.6430      0.29821725
       4863.6043      0.35630774
       4864.5655      0.43416003
       4865.5268      0.33744673
       4866.4881      0.33132687
       4867.4493      0.39764861
       4868.4106      0.27958860
       4869.3719      0.30252142
       4870.3331      0.34126169
       4871.2944      0.45002081
       4872.2557      0.28332232
       4873.2169      0.27121696
       4874.1782      0.25874872
       4875.1395      0.33050662
       4876.1007      0.37330237
       4877.0620      0.34419365
       4878.0233      0.35771433
       4878.9845      0.31174741
       4879.9458      0.30527852
       4880.9071      0.31740246
       4881.8683      0.29704009
       4882.8296      0.27521950
       4883.7909      0.34037212
       4884.7521      0.24335282
       4885.7134      0.34941880
       4886.6747      0.34133763
       4887.6359      0.27442503
       4888.5972      0.27366557
       4889.5585      0.35620632
       4890.5197      0.24479742
       4891.4810      0.21589451
       4892.4423      0.27992720
       4893.4035      0.38761689
       4894.3648      0.29234750
       4895.3261      0.30414085
       4896.2873      0.21668241
       4897.2486      0.29549934
       4898.2099      0.31272938
       4899.1711      0.34779473
       4900.1324      0.22429892
       4901.0937      0.31343796
       4902.0549     0.072589972
       4903.0162      0.27955901
       4903.9775      0.27628751
       4904.9387      0.31775408
       4905.9000      0.20327692
       4906.8613      0.25067803
       4907.8225      0.27145494
       4908.7838      0.29573583
       4909.7451      0.28932919
       4910.7063      0.24504880
       4911.6676      0.18254668
       4912.6289      0.33188067
       4913.5901      0.26734344
       4914.5514      0.28215472
       4915.5127      0.21569886
       4916.4739      0.30540695
       4917.4352      0.35626727
       4918.3965      0.23799367
       4919.3577      0.20827399
       4920.3190      0.11348142
       4921.2803      0.28814629
       4922.2415      0.35721698
       4923.2028      0.36134590
       4924.1641      0.37035533
       4925.1253      0.33343786
       4926.0866     -0.28747410
       4927.0479     -0.25766449
       4928.0091     -0.62131864
       4928.9704     -0.11073800
       4929.9317     -0.17349186
       4930.8929      0.10648176
       4931.8542      0.33510656
       4932.8155      0.77918249
       4933.7767       1.1072977
       4934.7380      0.86803485
       4935.6993      0.75267770
       4936.6605      0.44718214
       4937.6218      0.31753109
       4938.5831      0.27805373
       4939.5443      0.26183277
       4940.5056      0.19157775
       4941.4669      0.27018562
       4942.4281      0.15042634
       4943.3894      0.18992171
       4944.3507      0.18003086
       4945.3119      0.18697177
       4946.2732      0.16240139
       4947.2345      0.22042565
       4948.1957      0.21661501
       4949.1570      0.19848783
       4950.1183      0.26743458
       4951.0795      0.21163836
       4952.0408      0.25005250
       4953.0021      0.19975343
       4953.9633      0.15077745
       4954.9246      0.15646179
       4955.8859      0.18485356
       4956.8471     0.064693811
       4957.8084      0.18031809
       4958.7697      0.17853959
       4959.7309      0.22126473
       4960.6922      0.28026347
       4961.6535      0.21583595
       4962.6147      0.15019551
       4963.5760      0.15410408
       4964.5373      0.12655113
       4965.4985      0.19289438
       4966.4598      0.23321698
       4967.4211      0.27683161
       4968.3823      0.30623681
       4969.3436      0.27797429
       4970.3049      0.32870160
       4971.2661      0.35602728
       4972.2274      0.40971919
       4973.1887      0.31462539
       4974.1499      0.26342613
       4975.1112      0.13386982
       4976.0725      0.17942014
       4977.0337      0.13974150
       4977.9950     0.086643823
       4978.9563     0.065608474
       4979.9175      0.10441156
       4980.8788     0.044380013
       4981.8401      0.10936629
       4982.8013      0.10809439
       4983.7626      0.12936191
       4984.7239      0.10383117
       4985.6851     0.064887603
       4986.6464      0.20420157
       4987.6077     0.070778457
       4988.5689     0.078559452
       4989.5302      0.15255864
       4990.4915     0.096691611
       4991.4527    0.0033002721
       4992.4140     0.080530464
       4993.3753      0.14959389
       4994.3365      0.12381674
       4995.2978      0.14464818
       4996.2591     0.069961998
       4997.2203     0.075034964
       4998.1816      0.12184902
       4999.1429      0.10741840
       5000.1041     0.078189084
       5001.0654     0.039099469
       5002.0267     0.058305800
       5002.9879     0.076440646
       5003.9492     0.093327402
       5004.9105      0.10095184
       5747.2015       1.0774746
       5748.2518       1.3676071
       5749.3021      0.98346346
       5750.3523      0.90815636
       5751.4026      0.87502499
       5752.4529      0.83075501
       5753.5032      0.88158514
       5754.5534      0.75657370
       5755.6037      0.66010797
       5756.6540      0.64107323
       5757.7043      0.76627063
       5758.7545      0.86694818
       5759.8048      0.84239795
       5760.8551      0.95776706
       5761.9054      0.83219789
       5762.9557      0.89935409
       5764.0059      0.83976740
       5765.0562      0.84746615
       5766.1065      0.80356137
       5767.1568      0.90324940
       5768.2070      0.85443231
       5769.2573      0.78168602
       5770.3076      0.84353205
       5771.3579      0.94568112
       5772.4081      0.83492871
       5773.4584      0.82482125
       5774.5087      0.89871931
       5775.5590      0.83083721
       5776.6092      0.80809357
       5777.6595      0.96759670
       5778.7098      0.84942985
       5779.7601      0.83884064
       5780.8103      0.93480130
       5781.8606      0.93567445
       5782.9109      0.87871716
       5783.9612      0.91412535
       5785.0114      0.96180278
       5786.0617      0.84491835
       5787.1120      0.71719165
       5788.1623      0.83653708
       5789.2125      0.92137179
       5790.2628      0.79489877
       5791.3131      0.81226329
       5792.3634      0.78078471
       5793.4136      0.87963664
       5794.4639      0.80267306
       5795.5142      0.84880739
       5796.5645      0.89356962
       5797.6147      0.85055145
       5798.6650      0.82428638
       5799.7153      0.88748521
       5800.7656      0.87693105
       5801.8158      0.80527545
       5802.8661      0.85910641
       5803.9164      0.86314732
       5804.9667      0.87824234
       5806.0169      0.86164715
       5807.0672      0.74805445
       5808.1175      0.86035505
       5809.1678      0.87420229
       5810.2180      0.82462029
       5811.2683      0.91354475
       5812.3186      0.88960687
       5813.3689      0.88102347
       5814.4191      0.71987776
       5815.4694      0.78417742
       5816.5197      0.78357646
       5817.5700      0.80010993
       5818.6202      0.84586425
       5819.6705      0.81657257
       5820.7208      0.80384339
       5821.7711      0.86671486
       5822.8213      0.77873553
       5823.8716      0.81124893
       5824.9219      0.79602807
       5825.9722      0.82768145
       5827.0224      0.79146645
       5828.0727      0.75451963
       5829.1230      0.80570896
       5830.1733      0.83131578
       5831.2235      0.78397567
       5832.2738      0.73834899
       5833.3241      0.87246026
       5834.3744      0.83837181
       5835.4246      0.81361718
       5836.4749      0.73436753
       5837.5252      0.94562179
       5838.5755      0.93441917
       5839.6257      0.86141819
       5840.6760      0.84941973
       5841.7263      0.80142096
       5842.7766      0.91368838
       5843.8268       1.1078030
       5844.8771      0.95772689
       5845.9274      0.97488181
       5846.9777       1.2006014
       5848.0279       1.0410814
       5849.0782      0.95739201
       5850.1285      0.78910138
       5851.1788      0.79724820
       5852.2290      0.81826530
       5853.2793      0.80701705
       5854.3296      0.92925258
       5855.3799      0.84047302
       5856.4301      0.81740637
       5857.4804      0.81351037
       5858.5307      0.75546013
       5859.5810      0.74832690
       5860.6312      0.75506046
       5861.6815      0.68925149
       5862.7318      0.72853915
       5863.7821      0.73992180
       5864.8324      0.75983180
       5865.8826      0.71487678
       5866.9329      0.74278171
       5867.9832      0.72388902
       5869.0335      0.70507534
       5870.0837      0.82697209
       5871.1340      0.85598190
       5872.1843      0.83422541
       5873.2346      0.93196852
       5874.2848      0.88227526
       5875.3351      0.80245629
       5876.3854      0.88074722
       5877.4357      0.83294442
       5878.4859      0.80088499
       5879.5362      0.90051370
       5880.5865      0.86917141
       5881.6368      0.89590995
       5882.6870      0.92048335
       5883.7373      0.80910595
       5884.7876      0.83466157
       5885.8379      0.95929180
       5886.8881      0.96969308
       5887.9384      0.81212481
       5888.9887      0.85207580
       5890.0390      0.92185157
       5891.0892      0.89225545
       5892.1395      0.81475571
       5893.1898      0.89500674
       5894.2401      0.86372882
       5895.2903      0.89423374
       5896.3406      0.86671113
       5897.3909      0.91311744
       5898.4412      0.91813879
       5899.4914      0.82637370
       5900.5417      0.84028716
       5901.5920      0.89583045
       5902.6423      0.83992494
       5903.6925      0.89585626
       5904.7428      0.86005435
       5905.7931      0.87221830
       5906.8434      0.92967026
       5907.8936      0.87970822
       5908.9439      0.82109156
       5909.9942      0.76366747
       5911.0445      0.89159265
       5912.0947      0.82065985
       5913.1450      0.75933035
       5914.1953      0.78523339
       5915.2456      0.90498225
       5916.2958      0.84274218
       5917.3461      0.83088559
       5918.3964      0.82798879
       5919.4467      0.89773523
       5920.4969       1.0323053
       5921.5472      0.91241588
       5922.5975      0.89035092
       5923.6478      0.86408977
       5924.6980      0.83636914
       5925.7483      0.90446254
       5926.7986      0.97787086
       5927.8489      0.86498171
       5928.8991      0.92650574
       5929.9494      0.96686866
       5930.9997      0.85396583
       5932.0500      0.98455764
       5933.1002      0.91784637
       5934.1505      0.95232934
       5935.2008      0.90887764
       5936.2511      0.93007190
       5937.3013      0.85151447
       5938.3516      0.81316359
       5939.4019      0.85064052
       5940.4522      0.92039044
       5941.5024      0.80499519
       5942.5527      0.83032379
       5943.6030      0.84271905
       5944.6533      0.79388392
       5945.7035      0.87089183
       5946.7538      0.88427333
       5947.8041      0.86872731
       5948.8544      0.90010945
       5949.9046      0.84419947
       5950.9549      0.76832662
       5952.0052      0.85978097
       5953.0555      0.91659039
       5954.1057      0.82804339
       5955.1560      0.83303225
       5956.2063      0.84451597
       5957.2566      0.90200204
       5958.3068      0.98343551
       5959.3571      0.84979280
       5960.4074      0.91893447
       5961.4577      0.95912406
       5962.5079      0.95289702
       5963.5582      0.97409729
       5964.6085       1.0055006
       5965.6588      0.91063071
       5966.7091      0.83854262
       5967.7593      0.88234436
       5968.8096      0.91560263
       5969.8599      0.98611889
       5970.9102      0.88526403
       5971.9604      0.93705827
       5973.0107      0.91012466
       5974.0610       1.0044121
       5975.1113       1.0204932
       5976.1615      0.95346420
       5977.2118      0.85641957
       5978.2621      0.91029334
       5979.3124      0.86102935
       5980.3626      0.89522252
       5981.4129      0.87336846
       5982.4632      0.85199870
       5983.5135      0.90901929
       5984.5637      0.98005048
       5985.6140      0.97957342
       5986.6643       1.0165823
       5987.7146      0.97688963
       5988.7648      0.84706900
       5989.8151      0.87408982
       5990.8654      0.92479099
       5991.9157      0.92233092
       5992.9659      0.93354008
       5994.0162      0.88279166
       5995.0665      0.87080884
       5996.1168      0.83844548
       5997.1670      0.87322131
       5998.2173      0.81763384
       5999.2676      0.87243599
       6000.3179      0.87343114
       6001.3681      0.94189888
       6002.4184      0.93984025
       6003.4687      0.92461624
       6004.5190      0.95730800
       6005.5692      0.85623473
       6006.6195      0.94811141
       6007.6698       1.0370408
       6008.7201      0.87774313
       6009.7703      0.94252989
       6010.8206      0.95099184
       6011.8709      0.94817631
       6012.9212      0.95621176
       6013.9714      0.88938962
       6015.0217      0.77569453
       6016.0720      0.91135824
       6017.1223      0.88912448
       6018.1725       1.0191281
       6019.2228      0.95883028
       6020.2731      0.95293178
       6021.3234      0.87753471
       6022.3736      0.90270607
       6023.4239      0.84276224
       6024.4742      0.88830196
       6025.5245      0.99364344
       6026.5747       1.0553052
       6027.6250       1.0049864
       6028.6753      0.98048871
       6029.7256      0.89780636
       6030.7758      0.85543511
       6031.8261      0.81346191
       6032.8764      0.96108480
       6033.9267      0.87088385
       6034.9769      0.87950035
       6036.0272      0.95413618
       6037.0775      0.98044408
       6038.1278      0.91258846
       6039.1780      0.90047845
       6040.2283      0.95276354
       6041.2786      0.90369268
       6042.3289      0.83650202
       6043.3791      0.84965587
       6044.4294      0.86546726
       6045.4797      0.86314789
       6046.5300      0.98446607
       6047.5802      0.90667090
       6048.6305      0.92127918
       6049.6808       1.0293444
       6050.7311       1.0221090
       6051.7813       1.0044361
       6052.8316       1.0031190
       6053.8819      0.99704035
       6054.9322      0.92629332
       6055.9824      0.81297186
       6057.0327       1.0659609
       6058.0830      0.94437799
       6059.1333      0.84836007
       6060.1835      0.79749001
       6061.2338      0.83406468
       6062.2841      0.98716804
       6063.3344      0.91162371
       6064.3846      0.87448206
       6065.4349      0.75310588
       6066.4852      0.94108294
       6067.5355       1.0570377
       6068.5858       1.0341760
       6069.6360      0.97688676
       6070.6863      0.87857534
       6071.7366      0.91577725
       6072.7869      0.97707088
       6073.8371       1.0159124
       6074.8874      0.87574522
       6075.9377      0.97738505
       6076.9880      0.89930945
       6078.0382      0.93762720
       6079.0885      0.94546187
       6080.1388      0.89197902
       6081.1891      0.91444321
       6082.2393      0.96120395
       6083.2896       1.0284621
       6084.3399      0.92812631
       6085.3902       1.0316562
       6086.4404       1.1347481
       6087.4907       1.1032780
       6088.5410       1.0369778
       6089.5913      0.95609700
       6090.6415      0.73862325
       6091.6918      0.67311789
       6092.7421      0.64030806
       6093.7924      0.68959347
       6094.8426      0.68716539
       6095.8929      0.73314951
       6096.9432      0.65535486
       6097.9935      0.70200451
       6099.0437      0.68303453
       6100.0940      0.79879679
       6101.1443      0.87507788
       6102.1946      0.82645127
       6103.2448      0.95506444
       6104.2951      0.98998744
       6105.3454      0.91681296
       6106.3957      0.89652620
       6107.4459      0.89358116
       6108.4962      0.84522394
       6109.5465      0.89985909
       6110.5968      0.89739939
       6111.6470      0.83901425
       6112.6973      0.76132703
       6113.7476      0.87180035
       6114.7979      0.75829506
       6115.8481      0.74480292
       6116.8984      0.73765614
       6117.9487      0.76390202
       6118.9990      0.91084822
       6120.0492      0.82442134
       6121.0995      0.79086436
       6122.1498      0.79525818
       6123.2001      0.88687792
       6124.2503      0.94129314
       6125.3006      0.96857209
       6126.3509      0.95660768
       6127.4012      0.94007913
       6128.4514      0.86673477
       6129.5017      0.88532924
       6130.5520      0.93030504
       6131.6023      0.86395064
       6132.6525      0.84095848
       6133.7028      0.95500053
       6134.7531      0.98207406
       6135.8034      0.96101873
       6136.8536      0.94921007
       6137.9039      0.88498136
       6138.9542      0.96456688
       6140.0045       1.1041390
       6141.0547       1.0477441
       6142.1050      0.95616195
       6143.1553      0.86527912
       6144.2056      0.86601229
       6145.2558      0.78807455
       6146.3061      0.89540633
       6147.3564      0.92556670
       6148.4067      0.75851113
       6149.4569      0.80226048
       6150.5072       1.0067910
       6151.5575      0.95531284
       6152.6078      0.98935908
       6153.6580      0.92489648
       6154.7083       1.0921935
       6155.7586       1.1237367
       6156.8089       1.0418235
       6157.8591      0.94122607
       6158.9094      0.96989581
       6159.9597      0.96660264
       6161.0100      0.89309354
       6162.0602      0.93063089
       6163.1105      0.99139033
       6164.1608       1.0051022
       6165.2111      0.95343991
       6166.2613       1.1182997
       6167.3116      0.95203721
       6168.3619      0.96715539
       6169.4122      0.95098420
       6170.4624      0.84485974
       6171.5127      0.83890413
       6172.5630      0.95255718
       6173.6133      0.91862149
       6174.6636      0.86270433
       6175.7138      0.94310553
       6176.7641      0.96794445
       6177.8144      0.90635761
       6178.8647      0.90059168
       6179.9149       1.0150646
       6180.9652      0.97449623
       6182.0155       1.0073614
       6183.0658      0.91689962
       6184.1160      0.96116552
       6185.1663       1.0296164
       6186.2166      0.94434157
       6187.2669      0.92365347
       6188.3171      0.95237153
       6189.3674       1.0888343
       6190.4177      0.99406884
       6191.4680       1.0255720
       6192.5182      0.95836495
       6193.5685      0.92512442
       6194.6188      0.97500434
       6195.6691      0.93065066
       6196.7193      0.98056353
       6197.7696       1.0048173
       6198.8199      0.97171003
       6199.8702      0.91865946
       6200.9204       1.0273901
       6201.9707       1.0178651
       6203.0210      0.96428181
       6204.0713      0.85054382
       6205.1215      0.94472861
       6206.1718       1.0266023
       6207.2221      0.90792352
       6208.2724      0.97663445
       6209.3226       1.0038918
       6210.3729      0.88374157
       6211.4232      0.89226120
       6212.4735      0.89238856
       6213.5237      0.99700541
       6214.5740       1.0021275
       6215.6243      0.96508838
       6216.6746      0.92317319
       6217.7248      0.94469248
       6218.7751       1.0674423
       6219.8254       1.0263569
       6220.8757       1.0130643
       6221.9259       1.0007931
       6222.9762       1.0453556
       6224.0265      0.95097140
       6225.0768       1.0166822
       6226.1270      0.97561049
       6227.1773       1.0151602
       6228.2276      0.91407990
       6229.2779      0.91852894
       6230.3281      0.88710774
       6231.3784      0.93912794
       6232.4287      0.92721320
       6233.4790      0.97562267
       6234.5292       1.0474446
       6235.5795      0.94144046
       6236.6298      0.89900550
       6237.6801      0.84804933
       6238.7303      0.78945669
       6239.7806      0.91520834
       6240.8309      0.92132505
       6241.8812      0.84541617
       6242.9314       1.0071275
       6243.9817       1.0074704
       6245.0320      0.98711237
       6246.0823       1.0264588
       6247.1325      0.98534870
       6248.1828      0.98066233
       6249.2331      0.98782509
       6250.2834      0.93986131
       6251.3336      0.91526319
       6252.3839      0.99215829
       6253.4342      0.91117388
       6254.4845      0.96680696
       6255.5347       1.0194379
       6256.5850       1.1193259
       6257.6353       1.0764669
       6258.6856      0.91867387
       6259.7358      0.87636274
       6260.7861       1.0635045
       6261.8364       1.0249820
       6262.8867      0.89540883
       6263.9369      0.81979414
       6264.9872      0.88927312
       6266.0375      0.87461469
       6267.0878      0.94823913
       6268.1380       1.0492085
       6269.1883      0.94403089
       6270.2386      0.93691345
       6271.2889       1.0629572
       6272.3391       1.0058730
       6273.3894      0.94366946
       6274.4397      0.95235728
       6275.4900      0.95540263
       6276.5403      0.97142036
       6277.5905       1.0461205
       6278.6408       1.1422732
       6279.6911       1.0853530
       6280.7414       1.2579125
       6281.7916       1.3311428
       6282.8419       1.2693999
       6283.8922       1.2900572
       6284.9425       1.2251531
       6285.9927       1.0283979
       6287.0430       1.1226225
       6288.0933       1.1001444
       6289.1436      0.89704631
       6290.1938      0.94657604
       6291.2441       1.0647079
       6292.2944       1.0821649
       6293.3447       1.0897591
       6294.3949       1.0214415
       6295.4452      0.99710443
       6296.4955       1.0516731
       6297.5458      0.85097676
       6298.5960      0.95826261
       6299.6463      0.95429975
       6300.6966      0.88620853
       6301.7469      0.89211829
       6302.7971      0.87699172
       6303.8474      0.93652463
       6304.8977       1.0008691
       6305.9480      0.98371851
       6306.9982       1.0415129
       6308.0485       1.0878000
       6309.0988      0.93352226
       6310.1491      0.88835821
       6311.1993      0.93367413
       6312.2496      0.94506842
       6313.2999       1.0279105
       6314.3502       1.0659948
       6315.4004       1.0372101
       6316.4507       1.0590332
       6317.5010      0.99861510
       6318.5513       1.0000429
       6319.6015       1.0497185
       6320.6518       1.0488066
       6321.7021      0.93105391
       6322.7524       1.0068205
       6323.8026       1.0150668
       6324.8529       1.0355939
       6325.9032       1.1013775
       6326.9535       1.0082448
       6328.0037      0.88316833
       6329.0540       1.0625010
       6330.1043      0.92985585
       6331.1546      0.94221830
       6332.2048       1.0295243
       6333.2551      0.99850497
       6334.3054       1.0554426
       6335.3557       1.0262472
       6336.4059      0.93666204
       6337.4562       1.0721900
       6338.5065      0.96076490
       6339.5568      0.92951938
       6340.6070      0.99950882
       6341.6573       1.0028054
       6342.7076      0.99474764
       6343.7579       1.0398644
       6344.8081       1.1190511
       6345.8584       1.1140451
       6346.9087       1.1563235
       6347.9590       1.2207946
       6349.0092       1.1828772
       6350.0595       1.0749923
       6351.1098       1.0698660
       6352.1601       1.0427713
       6353.2103       1.1148401
       6354.2606      0.99420864
       6355.3109       1.0445633
       6356.3612       1.0356080
       6357.4114       1.0925742
       6358.4617       1.1023556
       6359.5120       1.0353417
       6360.5623      0.92030132
       6361.6125      0.94571401
       6362.6628       1.0074402
       6363.7131       1.0884659
       6364.7634      0.93881235
       6365.8136       1.0899842
       6366.8639       1.0199456
       6367.9142       1.0526320
       6368.9645       1.1272200
       6370.0147      0.99193905
       6371.0650      0.97017610
       6372.1153       1.0475494
       6373.1656       1.0093319
       6374.2158       1.0467041
       6375.2661       1.0428413
       6376.3164      0.86777743
       6377.3667      0.95529642
       6378.4170      0.96181629
       6379.4672      0.91849991
       6380.5175      0.99843347
       6381.5678       1.0305816
       6382.6181      0.90164071
       6383.6683      0.90829977
       6384.7186       1.0274145
       6385.7689       1.1546779
       6386.8192       1.1559026
       6387.8694       1.0297112
       6388.9197       1.1055274
       6389.9700       1.0314326
       6391.0203       1.0280596
       6392.0705       1.0228600
       6393.1208       1.0226846
       6394.1711      0.98154808
       6395.2214      0.91029349
       6396.2716       1.0251369
       6397.3219      0.86261427
       6398.3722      0.96704468
       6399.4225      0.93633925
       6400.4727       1.0049353
       6401.5230      0.98682100
       6402.5733      0.97178083
       6403.6236       1.0072765
       6404.6738       1.0612135
       6405.7241       1.0394346
       6406.7744       1.0198316
       6407.8247      0.98092475
       6408.8749       1.0461186
       6409.9252      0.94071574
       6410.9755      0.98561322
       6412.0258       1.0728733
       6413.0760       1.1016387
       6414.1263       1.0359877
       6415.1766       1.0340577
       6416.2269       1.1302025
       6417.2771      0.98508202
       6418.3274       1.0504498
       6419.3777       1.1144628
       6420.4280      0.94689330
       6421.4782      0.88035654
       6422.5285      0.91663661
       6423.5788      0.89178017
       6424.6291       1.0173257
       6425.6793       1.0937359
       6426.7296       1.0761147
       6427.7799       1.1946002
       6428.8302       1.2454831
       6429.8804       1.2860054
       6430.9307       1.2462975
       6431.9810       1.2240533
       6433.0313       1.0740084
       6434.0815      0.95642352
       6435.1318       1.0179797
       6436.1821      0.80161764
       6437.2324      0.71593418
       6438.2826      0.70253425
       6439.3329      0.64667144
       6440.3832      0.85094575
       6441.4335       1.1097271
       6442.4837       1.0119806
       6443.5340      0.98512884
       6444.5843      0.91894564
       6445.6346       1.0113118
       6446.6848       1.0376491
       6447.7351      0.97341364
       6448.7854      0.84707330
       6449.8357      0.95830911
       6450.8859       1.0109287
       6451.9362       1.1114902
       6452.9865      0.97332789
       6454.0368      0.98112286
       6455.0870       1.0078579
       6456.1373       1.0724361
       6457.1876       1.1414175
       6458.2379       1.1548232
       6459.2881       1.1268843
       6460.3384       1.2059030
       6461.3887       1.1819507
       6462.4390       1.3341149
       6463.4892       1.1952025
       6464.5395      0.97379671
       6465.5898      0.85668221
       6466.6401      0.82243320
       6467.6903      0.98368994
       6468.7406       1.1034657
       6469.7909       1.1045318
       6470.8412      0.95300792
       6471.8914       1.0538342
       6472.9417      0.90189845
       6473.9920       1.0149653
       6475.0423      0.88583759
       6476.0925       1.0446008
       6477.1428      0.99584551
       6478.1931       1.0760577
       6479.2434       1.1080243
       6480.2937      0.90793201
       6481.3439      0.92317059
       6482.3942      0.96296701
       6483.4445      0.94931014
       6484.4948       1.1024490
       6485.5450       1.1334051
       6486.5953       1.0634750
       6487.6456       1.1152452
       6488.6959       1.1533097
       6489.7461       1.0304806
       6490.7964      0.95253774
       6491.8467       1.0767765
       6492.8970      0.95823626
       6493.9472       1.0187824
       6494.9975       1.0504457
       6496.0478       1.2644387
       6497.0981       1.3925721
       6498.1483       1.4566813
       6499.1986       1.3671887
       6500.2489       1.2196055
       6501.2992       1.1833129
       6502.3494       1.1999064
       6503.3997      0.78696703
       6504.4500      0.85199671
       6505.5003      0.91693635
       6506.5505       1.1160782
       6507.6008       1.0243608
       6508.6511       1.1660936
       6509.7014       1.1256713
       6510.7516       1.1032988
       6511.8019       1.0081495
       6512.8522      0.89331389
       6513.9025      0.95859172
       6514.9527      0.93420523
       6516.0030      0.92070414
       6517.0533       1.1014944
       6518.1036       1.3867051
       6519.1538       1.3674201
       6520.2041       1.4151319
       6521.2544       1.5456409
       6522.3047       1.5060503
       6523.3549       1.1801602
       6524.4052       1.1035900
       6525.4555      0.83956580
       6526.5058       1.0004972
       6527.5560       1.0578143
       6528.6063       1.0339494
       6529.6566       1.0592175
       6530.7069       1.1424467
       6531.7571       1.3016999
       6532.8074       1.4180072
       6533.8577       1.6458165
       6534.9080       1.8511931
       6535.9582       1.8542547
       6537.0085       1.5836910
       6538.0588       1.2984718
       6539.1091       1.1390309
       6540.1593       1.1429594
       6541.2096       1.0998713
       6542.2599       1.0363333
       6543.3102       1.2636651
       6544.3604       1.5380139
       6545.4107       2.3909561
       6546.4610       3.6095033
       6547.5113       5.3043570
       6548.5615       6.7819487
       6549.6118       7.5932827
       6550.6621       7.1805756
       6551.7124       5.7126046
       6552.7626       3.8215601
       6553.8129       2.5083577
       6554.8632       1.8645187
       6555.9135       1.4099357
       6556.9637       1.1101670
       6558.0140      0.96103360
       6559.0643       1.0248471
       6560.1146      0.95301685
       6561.1648      0.97597152
       6562.2151       1.0282765
       6563.2654       1.0974066
       6564.3157       1.0973922
       6565.3659       1.1232487
       6566.4162       1.2425282
       6567.4665       1.7632480
       6568.5168       2.2528429
       6569.5670       2.6042815
       6570.6173       2.8976247
       6571.6676       2.6878229
       6572.7179       2.2693460
       6573.7681       2.0705455
       6574.8184       1.6960784
       6575.8687       1.4529110
       6576.9190       1.1898166
       6577.9692       1.1734265
       6579.0195       1.1424621
       6580.0698       1.0437226
       6581.1201      0.95963365
       6582.1704      0.96249924
       6583.2206      0.99269206
       6584.2709       1.0692696
       6585.3212       1.0498047
       6586.3715       1.1397606
       6587.4217       1.1409805
       6588.4720       1.0815265
       6589.5223       1.1081614
       6590.5726       1.2073699
       6591.6228       1.2472320
       6592.6731       1.1799516
       6593.7234       1.1147623
       6594.7737       1.1038061
       6595.8239       1.1391738
       6596.8742       1.1451010
       6597.9245       1.1275315
       6598.9748       1.1820054
       6600.0250       1.0208492
       6601.0753       1.0577965
       6602.1256       1.1834448
       6603.1759       1.2013913
       6604.2261       1.0688827
       6605.2764       1.1200923
       6606.3267       1.2308261
       6607.3770       1.1376911
       6608.4272       1.2490620
       6609.4775       1.4437369
       6610.5278       1.1755481
       6611.5781       1.0461503
       6612.6283       1.0438163
       6613.6786       1.1159321
       6614.7289       1.0699504
       6615.7792       1.1384817
       6616.8294       1.1750198
       6617.8797       1.0695544
       6618.9300       1.1488369
       6619.9803       1.0796885
       6621.0305       1.0934663
       6622.0808       1.1214891
       6623.1311       1.2042091
       6624.1814       1.2092891
       6625.2316       1.0780462
       6626.2819       1.0693536
       6627.3322       1.0839378
       6628.3825       1.0090876
       6629.4327       1.1144734
       6630.4830       1.2316686
       6631.5333       1.0967146
       6632.5836       1.1673427
       6633.6338       1.1507399
       6634.6841       1.0970263
       6635.7344       1.2675482
       6636.7847       1.2413648
       6637.8349       1.1499830
       6638.8852       1.2658936
       6639.9355       1.3278565
       6640.9858       1.0934670
       6642.0360       1.2259341
       6643.0863       1.1814017
       6644.1366       1.1200991
       6645.1869       1.0653931
       6646.2371      0.98107857
       6647.2874       1.0980760
       6648.3377       1.1567413
       6649.3880       1.2535558
       6650.4382       1.0649134
       6651.4885       1.0754733
       6652.5388       1.0851600
       6653.5891       1.0963323
       6654.6393       1.0787164
       6655.6896       1.1574376
       6656.7399       1.0543154
       6657.7902       1.1157077
       6658.8404       1.1356479
       6659.8907       1.2807328
       6660.9410       1.2530493
       6661.9913       1.1670168
       6663.0415       1.2384184
       6664.0918       1.1262233
       6665.1421       1.2211302
       6666.1924       1.0948301
       6667.2426       1.2957777
       6668.2929       1.2690915
       6669.3432       1.3450319
       6670.3935       1.3005334
       6671.4437       1.3597850
       6672.4940       1.2738662
       6673.5443       1.2354698
       6674.5946       1.2229821
       6675.6448       1.3182594
       6676.6951       1.2317235
       6677.7454       1.2616418
       6678.7957       1.1671204
       6679.8459       1.2570410
       6680.8962       1.2988229
       6681.9465       1.1237275
       6682.9968       1.2232269
       6684.0470       1.3744151
       6685.0973       1.3750577
       6686.1476       1.3112547
       6687.1979       1.2671002
       6688.2482       1.1455679
       6689.2984      0.98115567
       6690.3487      0.87160843
       6691.3990      0.91019692
       6692.4493      0.94201173
       6693.4995       1.1278574
       6694.5498       1.1174640
       6695.6001       1.1547742
       6696.6504       1.1708671
       6697.7006       1.1109852
       6698.7509       1.2593650
       6699.8012       1.2184068
       6700.8515       1.4014628
       6701.9017       1.6171968
       6702.9520       2.0626203
       6704.0023       2.5949541
       6705.0526       2.9643976
       6706.1028       2.8581008
       6707.1531       2.3928152
       6708.2034       1.8714318
       6709.2537       1.6547999
       6710.3039       1.4356136
       6711.3542       1.2944771
       6712.4045       1.1451984
       6713.4548       1.1923378
       6714.5050       1.4085022
       6715.5553       1.4670838
       6716.6056       1.7419494
       6717.6559       2.0982297
       6718.7061       2.1648862
       6719.7564       2.2300604
       6720.8067       2.1815574
       6721.8570       1.9969203
       6722.9072       1.6800415
       6723.9575       1.5137305
       6725.0078       1.5049078
       6726.0581       1.3994273
       6727.1083       1.3141342
       6728.1586       1.3481152
       6729.2089       1.2519943
       6730.2592       1.3472750
       6731.3094       1.3989995
       6732.3597       1.1276804
       6733.4100      0.99512209
       6734.4603       1.0199362
       6735.5105      0.94623574
       6736.5608       1.1118377
       6737.6111       1.0989316
       6738.6614       1.1959440
       6739.7116       1.3776133
       6740.7619       1.3158861
       6741.8122       1.1991930
       6742.8625       1.1592155
       6743.9127       1.0478856
       6744.9630       1.1081479
       6746.0133      0.96929213
       6747.0636      0.95580957
       6748.1138      0.96313541
       6749.1641      0.98637606
       6750.2144       1.0045065
       6751.2647      0.98642096
       6752.3149      0.85872568
       6753.3652             NaN
       6754.4155             NaN
       6755.4658             NaN
       6756.5160             NaN
       6757.5663             NaN
       6758.6166             NaN
       6759.6669             NaN
       6760.7171             NaN
       6761.7674             NaN
       6762.8177             NaN
       6763.8680             NaN
       6764.9182             NaN
       6765.9685             NaN
       6767.0188             NaN
       6768.0691             NaN
       6769.1193             NaN
       6770.1696             NaN
       6771.2199             NaN
       6772.2702             NaN
       6773.3204             NaN
       6774.3707             NaN
       6775.4210             NaN
       6776.4713             NaN
       6777.5215             NaN
       6778.5718             NaN
       6779.6221             NaN
       6780.6724             NaN
       6781.7226             NaN
       6782.7729             NaN
       6783.8232             NaN
       6784.8735             NaN
       6785.9237             NaN
       6786.9740             NaN
       6788.0243             NaN
       6789.0746             NaN
       6790.1249             NaN
       6791.1751             NaN
       6792.2254             NaN
       6793.2757             NaN
       6794.3260             NaN
       6795.3762             NaN
       6796.4265             NaN
       6797.4768             NaN
       6798.5271             NaN
       6799.5773             NaN
       6800.6276             NaN
       6801.6779             NaN
       6802.7282             NaN
       6803.7784             NaN
       6804.8287             NaN
       6805.8790             NaN
       6806.9293             NaN
       6807.9795             NaN
       6809.0298             NaN
       6810.0801             NaN
       6811.1304             NaN
       6812.1806             NaN
       6813.2309             NaN
       6814.2812             NaN
       6815.3315             NaN
       6816.3817             NaN
       6817.4320             NaN
       6818.4823             NaN
       6819.5326             NaN
       6820.5828             NaN
       6821.6331             NaN
       6822.6834             NaN
       6823.7337             NaN
       6824.7839             NaN
       6825.8342             NaN
       6826.8845             NaN
       6827.9348             NaN
       6828.9850             NaN
       6830.0353             NaN
       6831.0856             NaN
       6832.1359             NaN
       6833.1861             NaN
       6834.2364             NaN
       6835.2867             NaN
       6836.3370             NaN
       6837.3872             NaN
       6838.4375             NaN
       6839.4878             NaN
       6840.5381             NaN
       6841.5883             NaN
       6842.6386             NaN
       6843.6889             NaN
       6844.7392             NaN
       6845.7894             NaN
       6846.8397       1.1384690
       6847.8900       1.2067401
       6848.9403       1.1814323
       6849.9905       1.2269283
       6851.0408       1.1616460
       6852.0911       1.3525432
       6853.1414       1.3767064
       6854.1916       1.6003255
       6855.2419       1.6507012
       6856.2922       1.5255797
       6857.3425       1.5789624
       6858.3927       1.3733077
       6859.4430       1.0524722
       6860.4933       1.2287496
       6861.5436       1.1096355
       6862.5938      0.97486686
       6863.6441      0.75615641
       6864.6944       1.1608692
       6865.7447       1.0271753
       6866.7949       1.0908193
       6867.8452       1.1065010
       6868.8955       1.2187555
       6869.9458       1.2496002
       6870.9960       1.0956461
       6872.0463       1.1758287
       6873.0966       1.1006598
       6874.1469       1.1310281
       6875.1971       1.2085133
       6876.2474       1.3760555
       6877.2977       1.2772269
       6878.3480       1.0959953
       6879.3982       1.2602850
       6880.4485       1.2482322
       6881.4988       1.2609862
       6882.5491       1.2310164
       6883.5993       1.2779969
       6884.6496       1.3967840
       6885.6999       1.4608482
       6886.7502       1.9260162
       6887.8004       1.6399467
       6888.8507       1.7004331
       6889.9010       1.5780334
       6890.9513       1.2673774
       6892.0016       1.0470840
       6893.0518      0.95879529
       6894.1021      0.96170486
       6895.1524       1.1205779
       6896.2027       1.2732069
       6897.2529       1.3160387
       6898.3032       1.2278029
       6899.3535       1.1125175
       6900.4038       1.2541786
       6901.4540       1.1711970
       6902.5043       1.1863977
       6903.5546       1.0042642
       6904.6049      0.99057319
       6905.6551       1.1319433
       6906.7054       1.2996916
       6907.7557       1.3854332
       6908.8060       1.2396427
       6909.8562       1.2086049
       6910.9065       1.2956717
       6911.9568       1.2383008
       6913.0071       1.3089529
       6914.0573       1.1480564
       6915.1076       1.2762631
       6916.1579       1.2473083
       6917.2082       1.2187108
       6918.2584       1.1605218
       6919.3087       1.0557343
       6920.3590       1.1548834
       6921.4093       1.1330180
       6922.4595       1.1124339
       6923.5098       1.1317427
       6924.5601       1.3975435
       6925.6104       1.6408099
       6926.6606       1.8249025
       6927.7109       1.4821309
       6928.7612       1.1470050
       6929.8115       1.2143073
       6930.8617       1.0365230
       6931.9120      0.80502253
       6932.9623      0.88071407
       6934.0126      0.91702660
       6935.0628       1.1470119
       6936.1131       1.2033945
       6937.1634       1.3569084
       6938.2137       1.3163942
       6939.2639       1.3811591
       6940.3142       1.2865694
       6941.3645       1.3222960
       6942.4148       1.3041189
       6943.4650       1.3165555
       6944.5153       1.2783436
       6945.5656       1.0260265
       6946.6159       1.1517326
       6947.6661       1.0898417
       6948.7164       1.2308742
       6949.7667       1.4251437
       6950.8170       1.5462665
       6951.8672       1.6101642
       6952.9175       1.3302967
       6953.9678       1.5127452
       6955.0181       1.4470619
       6956.0683      0.98597971
       6957.1186      0.95919825
       6958.1689      0.90620038
       6959.2192      0.97516098
       6960.2694       1.2112085
       6961.3197       1.1316238
       6962.3700       1.1405063
       6963.4203       1.2216684
       6964.4705       1.2152021
       6965.5208       1.2131803
       6966.5711       1.1908717
       6967.6214       1.3063780
       6968.6716       1.2636315
       6969.7219       1.2671244
       6970.7722       1.2670644
       6971.8225       1.2346583
       6972.8727       1.3120665
       6973.9230       1.1675880
       6974.9733       1.1775191
       6976.0236       1.1050919
       6977.0738       1.3513216
       6978.1241       1.5422964
       6979.1744       1.6898959
       6980.2247       1.7508154
       6981.2749       1.4900413
       6982.3252       1.2538884
       6983.3755       1.2854989
       6984.4258       1.2491417
       6985.4760      0.89519484
       6986.5263       1.1148515
       6987.5766       1.2660721
       6988.6269      0.96450944
       6989.6771       1.0964493
       6990.7274      0.79899496
       6991.7777      0.99550187
       6992.8280       1.2894237
       6993.8783       1.2944571
       6994.9285       1.3694895
       6995.9788       1.3595793
       6997.0291       1.1994905
       6998.0794       1.3408348
       6999.1296       1.1162551
       7000.1799       1.0477135
       7001.2302       1.1347509
       7002.2805       1.0446820
       7003.3307       1.2457725
       7004.3810       1.2187851
       7005.4313       1.2830715
       7006.4816       1.1724423
       7007.5318       1.3764842
       7008.5821      0.96746551
       7009.6324       1.3312698
       7010.6827       1.2688997
       7011.7329       1.4644229
       7012.7832       1.4486333
       7013.8335       1.2894019
       7014.8838       1.3544269
       7015.9340       1.2382924
       7016.9843       1.0982509
       7018.0346       1.1233821
       7019.0849      0.91834104
       7020.1351       1.0311275
       7021.1854       1.0583714
       7022.2357       1.1877231
       7023.2860       1.1305008
       7024.3362       1.2482478
       7025.3865       1.1023555
       7026.4368       1.1235370
       7027.4871       1.2338027
       7028.5373       1.2253491
       7029.5876       1.3551699
       7030.6379       1.3627596
       7031.6882       1.5838762
       7032.7384       1.9902639
       7033.7887       1.7278620
       7034.8390       1.7059520
       7035.8893       1.7922813
       7036.9395       1.3190903
       7037.9898      0.86699154
       7039.0401      0.84644001
       7040.0904       1.2053533
       7041.1406       1.1128739
       7042.1909       1.2593525
       7043.2412       1.3206494
       7044.2915       1.0754047
       7045.3417       1.0841023
       7046.3920       1.0792425
       7047.4423       1.1846134
       7048.4926       1.1422895
       7049.5428       1.3335389
       7050.5931       1.2865469
       7051.6434       1.3467070
       7052.6937       1.4103447
       7053.7439       1.3332284
       7054.7942       1.1712501
       7055.8445      0.99488014
       7056.8948       1.1128863
       7057.9450       1.2008131
       7058.9953       1.0059464
       7060.0456       1.0911418
       7061.0959       1.1070729
       7062.1461       1.1409342
       7063.1964       1.2996416
       7064.2467       1.2635241
       7065.2970       1.3080784
       7066.3472       1.2647834
       7067.3975       1.1924586
       7068.4478       1.1729340
       7069.4981      0.96567963
       7070.5483      0.99645250
       7071.5986       1.1541698
       7072.6489       1.2918209
       7073.6992       1.2515568
       7074.7494       1.1954590
       7075.7997       1.2646388
       7076.8500       1.3751558
       7077.9003       1.4753993
       7078.9505       1.3478195
       7080.0008       1.2321991
       7081.0511       1.2646545
       7082.1014       1.0151177
       7083.1516       1.1697382
       7084.2019      0.59385035
       7085.2522      0.77035813
       7086.3025      0.99870927
       7087.3527       1.0347253
       7088.4030       1.2381305
       7089.4533       1.2709112
       7090.5036       1.2554025
       7091.5538       1.1876982
       7092.6041       1.5150075
       7093.6544       1.3156055
       7094.7047       1.2562170
       7095.7550      0.92841174
       7096.8052       1.0004039
       7097.8555      0.97438513
       7098.9058      0.94892710
       7099.9561       1.1515324
       7101.0063       1.1602424
       7102.0566       1.4037004
       7103.1069       1.2820164
       7104.1572       1.5278756
       7105.2074       1.5305598
       7106.2577       1.4883203
       7107.3080       1.4790681
       7108.3583      0.92748301
       7109.4085      0.81271506
       7110.4588      0.87493244
       7111.5091      0.94572991
       7112.5594      0.97222176
       7113.6096       1.0945616
       7114.6599       1.1962509
       7115.7102       1.1626790
       7116.7605       1.2026561
       7117.8107       1.0700070
       7118.8610       1.0224360
       7119.9113       1.0650819
       7120.9616       1.2550196
       7122.0118       1.2743691
       7123.0621       1.3191464
       7124.1124       1.4509346
       7125.1627       1.4960724
       7126.2129       1.3647987
       7127.2632       1.3514114
       7128.3135       1.0056312
       7129.3638       1.0984991
       7130.4140       1.0761558
       7131.4643       1.3651897
       7132.5146       1.4105442
       7133.5649       1.4478829
       7134.6151       1.4100911
       7135.6654       1.4901850
       7136.7157       1.1757167
       7137.7660      0.78642679
       7138.8162      0.58742833
       7139.8665      0.75818777
       7140.9168      0.88753954
       7141.9671       1.0808235
       7143.0173       1.1519381
       7144.0676       1.2932512
       7145.1179       1.2081996
       7146.1682       1.2114201
       7147.2184       1.1913311
       7148.2687       1.2130497
       7149.3190       1.1230311
       7150.3693       1.1617092
       7151.4195       1.1137857
       7152.4698       1.1598832
       7153.5201       1.1618946
       7154.5704       1.1831925
       7155.6206       1.2284643
       7156.6709       1.2181785
       7157.7212       1.2467472
       7158.7715       1.1685850
       7159.8217       1.2469479
       7160.8720       1.2548407
       7161.9223       1.2417993
       7162.9726       1.2122568
       7164.0228       1.3156321
       7165.0731       1.3908960
       7166.1234       1.3575139
       7167.1737       1.1032017
       7168.2239       1.1378819
       7169.2742       1.2387484
       7170.3245      0.98095063
       7171.3748       1.1380903
       7172.4250       1.0345356
       7173.4753       1.1486172
       7174.5256       1.1301617
       7175.5759       1.1336329
       7176.6261       1.0351237
       7177.6764       1.0539114
       7178.7267       1.1505786
       7179.7770       1.1572355
       7180.8272       1.2410817
       7181.8775       1.3249607
       7182.9278       1.1640500
       7183.9781       1.1117178
       7185.0283       1.2019410
       7186.0786       1.1294034
       7187.1289       1.2678359
       7188.1792       1.1155328
       7189.2294       1.1150003
       7190.2797       1.1021464
       7191.3300       1.2160577
       7192.3803       1.2139734
       7193.4305       1.1590568
       7194.4808       1.3282135
       7195.5311       1.1785674
       7196.5814       1.2514889
       7197.6317       1.2824467
       7198.6819       1.2488168
       7199.7322       1.2211383
       7200.7825       1.2731970
       7201.8328       1.2293304
       7202.8830       1.1874947
       7203.9333       1.3040510
       7204.9836       1.2841827
       7206.0339       1.2038443
       7207.0841       1.2017948
       7208.1344       1.1836812
       7209.1847       1.2650264
       7210.2350       1.1913079
       7211.2852       1.1938299
       7212.3355       1.1862031
       7213.3858       1.2435643
       7214.4361       1.1609862
       7215.4863       1.1485699
       7216.5366       1.0665839
       7217.5869       1.0394651
       7218.6372       1.1425929
       7219.6874       1.2363728
       7220.7377       1.1990317
       7221.7880       1.2095154
       7222.8383       1.1838304
       7223.8885       1.1293755
       7224.9388       1.1566665
       7225.9891       1.2471020
       7227.0394       1.2459357
       7228.0896       1.1391461
       7229.1399       1.2258457
       7230.1902       1.2408695
       7231.2405       1.2331983
       7232.2907       1.1085925
       7233.3410       1.2675705
       7234.3913       1.1422239
       7235.4416       1.2241681
       7236.4918       1.0709413
       7237.5421       1.3192047
       7238.5924       1.2454707
       7239.6427       1.2707655
       7240.6929       1.1892518
       7241.7432       1.2008778
       7242.7935       1.1912987
       7243.8438       1.1078471
       7244.8940       1.0983662
       7245.9443       1.2774386
       7246.9946       1.3313053
       7248.0449       1.1821099
       7249.0951       1.1424801
       7250.1454       1.1798830
       7251.1957       1.2267112
       7252.2460       1.2344850
       7253.2962       1.1782583
       7254.3465       1.1498462
       7255.3968       1.0969549
       7256.4471       1.1103988
       7257.4973       1.0656224
       7258.5476       1.2231449
       7259.5979       1.1527439
       7260.6482       1.1940654
       7261.6984       1.2576232
       7262.7487       1.1316175
       7263.7990       1.2228229
       7264.8493       1.2182568
       7265.8995       1.1985373
       7266.9498       1.0682179
       7268.0001       1.1503680
       7269.0504       1.1734787
       7270.1006       1.1771165
       7271.1509       1.1116024
       7272.2012       1.1073824
       7273.2515       1.0451057
       7274.3017       1.1262427
       7275.3520       1.2639927
       7276.4023       1.1757511
       7277.4526       1.1471531
       7278.5028       1.1597236
       7279.5531       1.1782910
       7280.6034       1.1749827
       7281.6537       1.0286910
       7282.7039       1.2641849
       7283.7542       1.0060921
       7284.8045       1.2231306
       7285.8548       1.1302115
       7286.9050       1.2056779
       7287.9553       1.3248976
       7289.0056       1.0982426
       7290.0559       1.0525722
       7291.1061       1.1974450
       7292.1564       1.3135286
       7293.2067       1.3260746
       7294.2570       1.3499356
       7295.3072       1.1369719
       7296.3575       1.2683091
       7297.4078       1.1997677
       7298.4581       1.3376099
       7299.5083       1.2328723
       7300.5586       1.3053081
       7301.6089       1.1952157
       7302.6592       1.3332728
       7303.7095       1.2943902
       7304.7597       1.1348334
       7305.8100       1.2935794
       7306.8603       1.2379194
       7307.9106       1.3816605
       7308.9608       1.3243649
       7310.0111       1.2782693
       7311.0614       1.3449843
       7312.1117       1.0906400
       7313.1619       1.2173759
       7314.2122       1.2956358
       7315.2625       1.1609025
       7316.3128       1.0952898
       7317.3630       1.0868312
       7318.4133       1.2128507
       7319.4636       1.3312200
       7320.5139       1.3566445
       7321.5641       1.2088190
       7322.6144       1.3332032
       7323.6647       1.2007906
       7324.7150       1.2060698
       7325.7652       1.3687762
       7326.8155       1.2721238
       7327.8658       1.1933252
       7328.9161       1.3365317
       7329.9663       1.1911963
       7331.0166       1.2019335
       7332.0669       1.1334699
       7333.1172       1.1749566
       7334.1674       1.2767665
       7335.2177       1.1907844
       7336.2680       1.1012543
       7337.3183       1.1941058
       7338.3685       1.2437985
       7339.4188       1.2654724
       7340.4691       1.1806528
       7341.5194       1.1534739
       7342.5696       1.2403245
       7343.6199       1.2456072
       7344.6702       1.1849853
       7345.7205       1.2728918
       7346.7707       1.2670360
       7347.8210       1.2183266
       7348.8713       1.1649806
       7349.9216       1.1821473
       7350.9718       1.2342406
       7352.0221       1.2732209
       7353.0724       1.2296054
       7354.1227       1.2651889
       7355.1729       1.4103112
       7356.2232       1.3721907
       7357.2735       1.3972767
       7358.3238       1.4933171
       7359.3740       1.2444954
       7360.4243       1.3878981
       7361.4746       1.3360568
       7362.5249       1.3243042
       7363.5751       1.2108160
       7364.6254       1.4661452
       7365.6757       1.4587680
       7366.7260       1.4285549
       7367.7762       1.3293143
       7368.8265       1.2511821
       7369.8768       1.2629560
       7370.9271       1.2834734
       7371.9773       1.1547635
       7373.0276       1.2945345
       7374.0779       1.5394515
       7375.1282       1.4644819
       7376.1784       1.6161584
       7377.2287       1.3074240
       7378.2790       1.4755024
       7379.3293       1.1065634
       7380.3795      0.93283214
       7381.4298      0.72182356
       7382.4801      0.91406873
       7383.5304       1.1833888
       7384.5806       1.1839159
       7385.6309       1.2568796
       7386.6812       1.4319323
       7387.7315       1.3403988
       7388.7817       1.3908287
       7389.8320       1.3185902
       7390.8823       1.2497988
       7391.9326       1.2717560
       7392.9828       1.2082941
       7394.0331       1.3518631
       7395.0834       1.3427038
       7396.1337       1.2661319
       7397.1839       1.2696824
       7398.2342       1.1904261
       7399.2845       1.2543431
       7400.3348       1.1830373
       7401.3850       1.1736335
       7402.4353       1.2589298
       7403.4856       1.3383453
       7404.5359       1.2343540
       7405.5862       1.1698304
       7406.6364       1.2352115
       7407.6867       1.2316633
       7408.7370       1.3345535
       7409.7873       1.3588997
       7410.8375       1.4298469
       7411.8878       1.2563248
       7412.9381       1.3610310
       7413.9884       1.5626396
       7415.0386       1.8491665
       7416.0889       1.8465389
       7417.1392       1.9947883
       7418.1895       1.0422820
       7419.2397       1.6210592
       7420.2900       1.1660239
       7421.3403      0.88884313
       7422.3906      0.86911268
       7423.4408       1.2055300
       7424.4911       1.2949528
       7425.5414       1.0848974
       7426.5917       1.1890354
       7427.6419      0.95052266
       7428.6922       1.1606681
       7429.7425       1.1121845
       7430.7928       1.1441374
       7431.8430       1.2153268
       7432.8933       1.3471130
       7433.9436       1.4555571
       7434.9939       1.4812383
       7436.0441       1.2855067
       7437.0944       1.1817136
       7438.1447       1.2791358
       7439.1950      0.88953951
       7440.2452       1.1180687
       7441.2955       1.0726847
       7442.3458       1.2247246
       7443.3961       1.1589189
       7444.4463       1.1819465
       7445.4966       1.2662635
       7446.5469       1.3243185
       7447.5972       1.3843763
       7448.6474       1.6028065
       7449.6977       1.4295508
       7450.7480       1.4066078
       7451.7983       1.4715253
       7452.8485       1.1776254
       7453.8988      0.96950965
       7454.9491       1.1750923
       7455.9994       1.1102609
       7457.0496       1.1893150
       7458.0999       1.2894407
       7459.1502       1.1678571
       7460.2005       1.2868431
       7461.2507       1.3733917
       7462.3010       1.6500908
       7463.3513       2.0052733
       7464.4016       1.7042366
       7465.4518       1.8239789
       7466.5021       1.6969791
       7467.5524       1.8174985
       7468.6027       1.0107751
       7469.6529      0.39207830
       7470.7032      0.62182337
       7471.7535       1.0042667
       7472.8038      0.88060911
       7473.8540       1.0196209
       7474.9043       1.1953753
       7475.9546       1.3409983
       7477.0049       1.4005043
       7478.0551       1.5106071
       7479.1054       1.4547299
       7480.1557       1.4545787
       7481.2060       1.5319966
       7482.2562       1.1845617
       7483.3065      0.87119480
       7484.3568       1.0317872
       7485.4071       1.0003796
       7486.4573       1.2412897
       7487.5076       1.2372709
       7488.5579       1.3379018
       7489.6082       1.7678882
       7490.6584       1.7267985
       7491.7087       2.0531702
       7492.7590       1.9035339
       7493.8093       1.4977681
       7494.8595       1.6088966
       7495.9098       1.0526320
       7496.9601      0.51839828
       7498.0104      0.64385893
       7499.0606      0.91185611
       7500.1109       1.0147551
       7501.1612       1.1821273
       7502.2115       1.2488913
       7503.2617       1.2348180
       7504.3120       1.1938519
       7505.3623       1.0585356
       7506.4126       1.2558330
       7507.4629       1.3349375
       7508.5131       1.2985896
       7509.5634       1.5227769
       7510.6137       1.4719529
       7511.6640       1.2837181
       7512.7142       1.3465580
       7513.7645       1.3716538
       7514.8148       1.3410426
       7515.8651       1.0816938
       7516.9153      0.99171526
       7517.9656       1.0498060
       7519.0159       1.1025709
       7520.0662       1.3551408
       7521.1164       1.9334681
       7522.1667       1.8918315
       7523.2170       1.8372229
       7524.2673       1.6448634
       7525.3175       1.4627814
       7526.3678       1.3548433
       7527.4181       1.0159626
       7528.4684      0.75989127
       7529.5186       1.0798476
       7530.5689       1.2173677
       7531.6192       1.2339135
       7532.6695       1.3130638
       7533.7197       1.2132435
       7534.7700       1.3322087
       7535.8203       1.3862401
       7536.8706       1.2982837
       7537.9208       1.2826373
       7538.9711       1.3083838
       7540.0214       1.2255664
       7541.0717       1.1884355
       7542.1219       1.3282551
       7543.1722       1.3206463
       7544.2225       1.2951684
       7545.2728       1.3780215
       7546.3230       1.3779492
       7547.3733       1.4522921
       7548.4236       1.4695297
       7549.4739       1.3458589
       7550.5241       1.2962793
       7551.5744       1.3554701
       7552.6247       1.1156017
       7553.6750       1.1616215
       7554.7252       1.2355613
       7555.7755       1.4239847
       7556.8258       1.5635564
       7557.8761       1.4601550
       7558.9263       1.5658434
       7559.9766       1.4810081
       7561.0269       1.4348137
       7562.0772       1.1173080
       7563.1274       1.1961360
       7564.1777       1.3140602
       7565.2280       1.2080964
       7566.2783       1.2778940
       7567.3285       1.2242396
       7568.3788       1.3235027
       7569.4291       1.4144936
       7570.4794       1.1834311
       7571.5296       1.2470523
       7572.5799       1.2231072
       7573.6302       1.1645999
       7574.6805       1.3939993
       7575.7307       1.1974706
       7576.7810       1.3582746
       7577.8313       1.1753149
       7578.8816       1.1216545
       7579.9318       1.2840887
       7580.9821       1.2742064
       7582.0324       1.2420157
       7583.0827       1.2250562
       7584.1329       1.3097952
       7585.1832       1.3032813
       7586.2335       1.4113902
       7587.2838       1.3416850
       7588.3340       1.3750023
       7589.3843       1.1470796
       7590.4346       1.3804553
       7591.4849       1.1938081
       7592.5351       1.3238264
       7593.5854       1.2749719
       7594.6357       1.3572543
       7595.6860       1.4174178
       7596.7362       1.5279479
       7597.7865       1.4925183
       7598.8368       1.5050114
       7599.8871       1.2747939
       7600.9373       1.0285434
       7601.9876       1.1737863
       7603.0379       1.3466208
       7604.0882       1.2761239
       7605.1384       1.2484721
       7606.1887       1.3007385
       7607.2390       1.3047756
       7608.2893       1.2406083
       7609.3396       1.4135716
       7610.3898       1.2735678
       7611.4401       1.3759622
       7612.4904       1.2684487
       7613.5407       1.4159082
       7614.5909       1.3801733
       7615.6412       1.1669877
       7616.6915       1.2489871
       7617.7418       1.3151331
       7618.7920       1.2795896
       7619.8423       1.3538347
       7620.8926       1.3060896
       7621.9429       1.2694289
       7622.9931       1.1758994
       7624.0434       1.1479072
       7625.0937       1.2308181
       7626.1440       1.3255637
       7627.1942       1.2214234
       7628.2445       1.3435753
       7629.2948       1.3331974
       7630.3451       1.2693131
       7631.3953       1.3521645
       7632.4456       1.1781520
       7633.4959       1.3693475
       7634.5462       1.3948733
       7635.5964       1.2485772
       7636.6467       1.2522482
       7637.6970       1.0900861
       7638.7473       1.2596540
       7639.7975       1.3291710
       7640.8478       1.4435300
       7641.8981       1.1399515
       7642.9484       1.2050186
       7643.9986       1.1863725
       7645.0489       1.1891910
       7646.0992       1.2924248
       7647.1495       1.2647723
       7648.1997       1.1796524
       7649.2500       1.1615699
       7650.3003       1.2795560
       7651.3506       1.2631319
       7652.4008       1.1105830
       7653.4511       1.1054588
       7654.5014       1.3540685
       7655.5517       1.3128012
       7656.6019       1.3012955
       7657.6522       1.6375890
       7658.7025       1.2640925
       7659.7528       1.5042762
       7660.8030       1.4072154
       7661.8533       1.2908215
       7662.9036       1.1613637
       7663.9539       1.5485525
       7665.0041       1.2408055
       7666.0544       1.0421201
       7667.1047       1.5432896
       7668.1550       1.2653937
       7669.2052       1.1298866
       7670.2555       1.0976345
       7671.3058       1.3388075
       7672.3561       1.4264369
       7673.4063       1.1196709
       7674.4566       1.1436558
       7675.5069      0.96548313
       7676.5572      0.89219509
       7677.6074       1.2011736
       7678.6577       1.0778829
       7679.7080       1.2081652
       7680.7583       1.1199027
       7681.8085       1.2474047
       7682.8588       1.2527843
       7683.9091       1.4011958
       7684.9594       1.4092249
       7686.0096       1.5695247
       7687.0599       1.2827832
       7688.1102       1.6169926
       7689.1605       1.1372125
       7690.2107       1.5864626
       7691.2610       1.2101712
       7692.3113       1.0032966
       7693.3616       1.2267094
       7694.4118       1.5322065
       7695.4621       1.0901456
       7696.5124       1.1011025
       7697.5627       1.4622670
       7698.6129      0.95978396
       7699.6632      0.75969002
       7700.7135       1.1038327
       7701.7638       1.3453817
       7702.8140       1.1607749
       7703.8643      0.99175599
       7704.9146      0.92263641
       7705.9649      0.93296835
       7707.0151       1.5051908
       7708.0654       1.2812320
       7709.1157       1.1656381
       7710.1660       1.0484074
       7711.2163       1.2083474
       7712.2665       1.4788802
       7713.3168       1.1454378
       7714.3671       1.0335720
       7715.4174       1.2079132
       7716.4676       1.5194270
       7717.5179       1.5732329
       7718.5682       1.2556821
       7719.6185       1.4250194
       7720.6687       1.1508348
       7721.7190       1.2028150
       7722.7693       1.2277442
       7723.8196       1.2365019
       7724.8698       1.2700246
       7725.9201       1.4693634
       7726.9704       1.1632565
       7728.0207       1.2098347
       7729.0709       1.1123752
       7730.1212       1.2379723
       7731.1715       1.2671729
       7732.2218       1.1907270
       7733.2720       1.2473896
       7734.3223       1.4384474
       7735.3726       1.3719992
       7736.4229       1.3129482
       7737.4731       1.3449020
       7738.5234       1.2800483
       7739.5737       1.2988453
       7740.6240       1.3600199
       7741.6742       1.3145333
       7742.7245       1.3339026
       7743.7748       1.2786906
       7744.8251       1.5066466
       7745.8753       1.2325119
       7746.9256       1.2774268
       7747.9759       1.2873063
       7749.0262       1.3596809
       7750.0764       1.2502940
       7751.1267       1.2717157
       7752.1770       1.3231450
       7753.2273       1.3576106
       7754.2775       1.2607117
       7755.3278       1.4148567
       7756.3781       1.3046477
       7757.4284       1.2716939
       7758.4786       1.3027064
       7759.5289       1.1806492
       7760.5792       1.2234800
       7761.6295       1.2533737
       7762.6797       1.3562776
       7763.7300       1.4893451
       7764.7803       1.3942979
       7765.8306       1.4186376
       7766.8808       1.3954679
       7767.9311       1.4490802
       7768.9814       1.4079522
       7770.0317       1.2954832
       7771.0819       1.2763188
       7772.1322       1.3838732
       7773.1825       1.4315860
       7774.2328       1.2258286
       7775.2830       1.4481587
       7776.3333       1.3845669
       7777.3836       1.3678120
       7778.4339       1.4409550
       7779.4841       1.4006264
       7780.5344       1.3679835
       7781.5847       1.7135382
       7782.6350       1.4601000
       7783.6852       1.7000938
       7784.7355       1.6328120
       7785.7858       1.5363442
       7786.8361       1.8447056
       7787.8863       1.8052871
       7788.9366       1.8848495
       7789.9869       1.4429510
       7791.0372       1.1141198
       7792.0874       1.4441720
       7793.1377       1.2305791
       7794.1880       1.3398089
       7795.2383      0.96497606
       7796.2885       1.4628973
       7797.3388       2.0014626
       7798.3891       1.7238609
       7799.4394       1.6154999
       7800.4896       1.4061648
       7801.5399       1.4685697
       7802.5902       1.6099162
       7803.6405      0.85177443
       7804.6907      0.71967434
       7805.7410      0.93752580
       7806.7913       1.2774998
       7807.8416       1.4794723
       7808.8918       1.4857913
       7809.9421       1.6395603
       7810.9924       1.3868827
       7812.0427       1.4003656
       7813.0929       1.3610984
       7814.1432       1.3472986
       7815.1935      0.97887336
       7816.2438       1.2474095
       7817.2941       1.2287074
       7818.3443       1.3020696
       7819.3946       1.3428420
       7820.4449       1.2667091
       7821.4952       1.3137868
       7822.5454       1.3308141
       7823.5957       1.3318471
       7824.6460       1.3909721
       7825.6963       1.3760581
       7826.7465       1.4231897
       7827.7968       1.5690691
       7828.8471       1.4536768
       7829.8974       1.4461077
       7830.9476       1.3528796
       7831.9979       1.4053300
       7833.0482       1.5639667
       7834.0985       1.4494138
       7835.1487       1.5195544
       7836.1990       1.3642246
       7837.2493       1.3464864
       7838.2996       1.3531758
       7839.3498       1.5373645
       7840.4001       2.9525776
       7841.4504       3.7732846
       7842.5007       2.1907930
       7843.5509       2.0007648
       7844.6012       2.1047943
       7845.6515       1.0680926
       7846.7018      0.11217779
       7847.7520      0.10717720
       7848.8023       1.3554553
       7849.8526       2.0957266
       7850.9029       1.3684286
       7851.9531       1.7129677
       7853.0034       1.5385776
       7854.0537       1.3291174
       7855.1040      0.95246005
       7856.1542       1.2175410
       7857.2045       1.3682279
       7858.2548       1.5848919
       7859.3051       1.4182731
       7860.3553       1.5342390
       7861.4056       1.5955969
       7862.4559       1.4692203
       7863.5062       1.6382519
       7864.5564       1.4327608
       7865.6067       1.2305894
       7866.6570       1.1898199
       7867.7073       1.4411787
       7868.7575       1.3919296
       7869.8078       1.4502720
       7870.8581       1.3816089
       7871.9084       1.3298269
       7872.9586       1.2912229
       7874.0089       1.5970804
       7875.0592       1.4880824
       7876.1095       1.5751594
       7877.1597       1.4333555
       7878.2100       1.6016375
       7879.2603       1.8273899
       7880.3106       1.1761123
       7881.3608       1.4144063
       7882.4111       1.2843774
       7883.4614       1.2743356
       7884.5117       1.3581492
       7885.5619       1.5534689
       7886.6122       1.3769770
       7887.6625       1.4023393
       7888.7128       1.4488308
       7889.7630       1.4315111
       7890.8133       1.7841081
       7891.8636       2.4061090
       7892.9139       2.5157545
       7893.9641       2.8199255
       7895.0144       2.1995397
       7896.0647       2.1458408
       7897.1150       1.3793334
       7898.1652      0.74401806
       7899.2155      0.78124886
       7900.2658      0.98147511
       7901.3161       1.1295245
       7902.3663       1.2143079
       7903.4166       1.2538128
       7904.4669       1.2752778
       7905.5172       1.4287951
       7906.5674       1.5775817
       7907.6177       2.1395386
       7908.6680       1.9154587
       7909.7183       1.9238312
       7910.7685       1.4224830
       7911.8188       1.5851942
       7912.8691       1.0933819
       7913.9194       1.2120103
       7914.9696       1.0658076
       7916.0199       1.2117050
       7917.0702       1.4183448
       7918.1205       1.3136487
       7919.1708       1.4033048
       7920.2210       1.6224116
       7921.2713       2.3175424
       7922.3216       3.0475265
       7923.3719       3.0398609
       7924.4221       2.6451917
       7925.4724       2.1598943
       7926.5227       1.3697920
       7927.5730      0.59911320
       7928.6232      0.40793612
       7929.6735      0.64567214
       7930.7238       1.0724892
       7931.7741       1.1839890
       7932.8243       1.4064196
       7933.8746       1.5036132
       7934.9249       1.3418080
       7935.9752       1.4075164
       7937.0254       1.4562051
       7938.0757       1.3549070
       7939.1260       1.4616946
       7940.1763       1.3568882
       7941.2265       1.7807422
       7942.2768       1.9330438
       7943.3271       2.0013688
       7944.3774       1.9709877
       7945.4276       1.5521373
       7946.4779       1.5606640
       7947.5282       1.6426443
       7948.5785       1.3569505
       7949.6287       1.3788626
       7950.6790       1.2246813
       7951.7293       1.3125887
       7952.7796       1.5009624
       7953.8298       1.4915384
       7954.8801       1.9560304
       7955.9304       2.3488687
       7956.9807       1.9036317
       7958.0309       2.4587904
       7959.0812       1.7430291
       7960.1315       1.9311107
       7961.1818       1.2974381
       7962.2320      0.36361696
       7963.2823       1.1301735
       7964.3326       1.1160233
       7965.3829       1.3841921
       7966.4331       1.2891250
       7967.4834       1.5437467
       7968.5337       1.4429578
       7969.5840       1.3310046
       7970.6342       1.2421045
       7971.6845       1.3650714
       7972.7348       1.4087460
       7973.7851       1.5519806
       7974.8353       1.4837023
       7975.8856       1.5407273
       7976.9359       1.6182846
       7977.9862       1.6252723
       7979.0364       1.4898886
       7980.0867       1.5303120
       7981.1370       1.5474743
       7982.1873       1.5620222
       7983.2375       1.8491997
       7984.2878       1.4762253
       7985.3381       1.6904954
       7986.3884       1.2977637
       7987.4386       1.3980699
       7988.4889       1.4214270
       7989.5392       1.3772900
       7990.5895       1.3315376
       7991.6397       1.1873410
       7992.6900       1.8697719
       7993.7403       1.9926694
       7994.7906       2.0644926
       7995.8408       2.1158778
       7996.8911       1.7094833
       7997.9414       1.5931700
       7998.9917       1.0956156
       8000.0419      0.96491100
       8001.0922       1.1511601
       8002.1425       1.4002885
       8003.1928       1.3613885
       8004.2430       1.3922693
       8005.2933       1.5872967
       8006.3436       1.5162973
       8007.3939       1.5089371
       8008.4441       1.4258527
       8009.4944       1.4837568
       8010.5447       1.5733880
       8011.5950       1.5106365
       8012.6452       1.6133148
       8013.6955       1.4943026
       8014.7458       1.7079591
       8015.7961       1.6155430
       8016.8463       1.4889626
       8017.8966       1.4600941
       8018.9469       1.5573838
       8019.9972       1.5299167
       8021.0475       1.4872866
       8022.0977       1.5014595
       8023.1480       1.5863842
       8024.1983       1.3868791
       8025.2486       1.6143504
       8026.2988       1.7037245
       8027.3491       1.6912327
       8028.3994       1.5811571
       8029.4497       1.4796597
       8030.4999       1.5506917
       8031.5502       1.3666881
       8032.6005       1.4608871
       8033.6508       1.2810358
       8034.7010       1.4652468
       8035.7513       1.7284356
       8036.8016       1.5325861
       8037.8519       1.8578041
       8038.9021       1.5471120
       8039.9524       1.6074366
       8041.0027       1.5531053
       8042.0530       1.2718591
       8043.1032       1.3627388
       8044.1535       1.5820948
       8045.2038       1.5763052
       8046.2541       1.5619005
       8047.3043       1.6078545
       8048.3546       1.4648920
       8049.4049       1.4623769
       8050.4552       1.5832459
       8051.5054       1.5274008
       8052.5557       1.4236788
       8053.6060       1.5701868
       8054.6563       1.6490287
       8055.7065       1.6203046
       8056.7568       1.4959156
       8057.8071       1.4102462
       8058.8574       1.5015675
       8059.9076       1.5917404
       8060.9579       1.4339737
       8062.0082       1.4106591
       8063.0585       1.5354812
       8064.1087       1.4655255
       8065.1590       1.5086445
       8066.2093       1.6536221
       8067.2596       1.4943176
       8068.3098       1.6771103
       8069.3601       1.6814345
       8070.4104       1.5509524
       8071.4607       1.4130013
       8072.5109       1.5701844
       8073.5612       1.7050909
       8074.6115       1.7677560
       8075.6618       1.6884074
       8076.7120       1.5724162
       8077.7623       1.4082648
       8078.8126       1.4560960
       8079.8629       1.4741841
       8080.9131       1.3267833
       8081.9634       1.6271053
       8083.0137       1.7058921
       8084.0640       1.6243408
       8085.1142       1.6061823
       8086.1645       1.5990884
       8087.2148       1.6740238
       8088.2651       1.5959233
       8089.3153       1.4494662
       8090.3656       1.3172381
       8091.4159       1.5815941
       8092.4662       1.6734387
       8093.5164       1.5410726
       8094.5667       1.5771973
       8095.6170       1.5431186
       8096.6673       1.6503637
       8097.7175       1.6221484
       8098.7678       1.6240580
       8099.8181       1.6397779
       8100.8684       1.4692030
       8101.9186       1.6247858
       8102.9689       1.4134272
       8104.0192       1.5365798
       8105.0695       1.5149647
       8106.1197       1.6481080
       8107.1700       1.6103075
       8108.2203       1.5551194
       8109.2706       1.6547451
       8110.3208       1.6271189
       8111.3711       1.5281050
       8112.4214       1.5605677
       8113.4717       1.5661419
       8114.5219       1.5630790
       8115.5722       1.6429965
       8116.6225       1.6106328
       8117.6728       1.6197019
       8118.7230       1.5482186
       8119.7733       1.6164211
       8120.8236       1.6889579
       8121.8739       1.6787151
       8122.9242       1.7020998
       8123.9744       1.5102295
       8125.0247       1.6539514
       8126.0750       1.6240353
       8127.1253       1.5465449
       8128.1755       1.6189470
       8129.2258       1.6505389
       8130.2761       1.5714436
       8131.3264       1.4028552
       8132.3766       1.4951664
       8133.4269       1.4735415
       8134.4772       1.6820671
       8135.5275       1.6636947
       8136.5777       1.6355902
       8137.6280       1.7936266
       8138.6783       1.7568580
       8139.7286       1.4910460
       8140.7788       1.5668289
       8141.8291       1.5815192
       8142.8794       1.5903037
       8143.9297       1.8123807
       8144.9799       1.7582153
       8146.0302       1.6787557
       8147.0805       1.6008074
       8148.1308       1.5445093
       8149.1810       1.7215899
       8150.2313       1.5653246
       8151.2816       1.7405900
       8152.3319       1.6615748
       8153.3821       1.5674375
       8154.4324       1.6806341
       8155.4827       1.7164009
       8156.5330       1.7762559
       8157.5832       1.7794338
       8158.6335       1.6445116
       8159.6838       1.7086898
       8160.7341       1.7564002
       8161.7843       1.7275811
       8162.8346       1.6386413
       8163.8849       1.6181979
       8164.9352       1.5567776
       8165.9854       1.7541957
       8167.0357       1.5024582
       8168.0860       1.7199118
       8169.1363       1.6510011
       8170.1865       1.3650692
       8171.2368       1.6315744
       8172.2871       1.7298077
       8173.3374       1.7476325
       8174.3876       1.7009768
       8175.4379       1.5342822
       8176.4882       1.6105898
       8177.5385       1.7504488
       8178.5887       1.7549568
       8179.6390       1.8434828
       8180.6893       1.7481161
       8181.7396       1.8010660
       8182.7898       1.7980408
       8183.8401       1.5827041
       8184.8904       1.8037577
       8185.9407       1.7665486
       8186.9909       1.7811277
       8188.0412       1.6948457
       8189.0915       1.7150476
       8190.1418       1.7135553
       8191.1920       1.5685493
       8192.2423       1.5277967
       8193.2926       1.8757140
       8194.3429       1.6788467
       8195.3931       1.7940107
       8196.4434       1.7109800
       8197.4937       1.6829082
       8198.5440       1.8383868
       8199.5942       1.6893073
       8200.6445       1.7898142
       8201.6948       1.6870078
       8202.7451       1.6477966
       8203.7953       1.9211653
       8204.8456       1.7878978
       8205.8959       1.6154130
       8206.9462       1.8041678
       8207.9964       1.7501317
       8209.0467       1.6635873
       8210.0970       1.7614988
       8211.1473       1.7590226
       8212.1975       1.7943846
       8213.2478       1.7080852
       8214.2981       1.7060824
       8215.3484       1.5852605
       8216.3986       1.6716910
       8217.4489       1.7498292
       8218.4992       1.6271054
       8219.5495       1.6452676
       8220.5997       1.7384474
       8221.6500       1.8106746
       8222.7003       1.8302806
       8223.7506       1.8419227
       8224.8009       1.7523751
       8225.8511       1.8950977
       8226.9014       1.8348499
       8227.9517       1.5595793
       8229.0020       1.6205654
       8230.0522       1.7031725
       8231.1025       1.6935267
       8232.1528       1.8364339
       8233.2031       1.6765893
       8234.2533       1.5063423
       8235.3036       1.7836240
       8236.3539       1.6132816
       8237.4042       1.7539761
       8238.4544       1.6787351
       8239.5047       1.6933082
       8240.5550       1.7666800
       8241.6053       1.7720256
       8242.6555       1.7466426
       8243.7058       1.8250134
       8244.7561       1.9173756
       8245.8064       1.6744318
       8246.8566       1.6764347
       8247.9069       1.8447619
       8248.9572       1.8823252
       8250.0075       1.7796809
       8251.0577       1.8605974
       8252.1080       1.8222709
       8253.1583       1.5819527
       8254.2086       1.7950567
       8255.2588       1.6203785
       8256.3091       1.4538411
       8257.3594       1.6693490
       8258.4097       1.5499816
       8259.4599       1.8417309
       8260.5102       1.7629889
       8261.5605       2.2861197
       8262.6108       2.4092716
       8263.6610       1.9265782
       8264.7113       2.1642503
       8265.7616       1.7573540
       8266.8119       2.5410433
       8267.8621       2.7887627
       8268.9124       1.9137781
       8269.9627       1.5062555
       8271.0130       1.4214167
       8272.0632       2.5615122
       8273.1135       1.2072460
       8274.1638      0.72355971
       8275.2141       1.2576899
       8276.2643       2.5453021
       8277.3146       2.4317552
       8278.3649       2.6935951
       8279.4152       2.1249871
       8280.4654       1.4980463
       8281.5157       1.7487213
       8282.5660      0.81842090
       8283.6163      0.62203014
       8284.6665       1.4529319
       8285.7168       1.4507392
       8286.7671       1.4421160
       8287.8174       1.6372280
       8288.8676       1.6920530
       8289.9179       1.7504957
       8290.9682       1.8410979
       8292.0185       1.2360550
       8293.0687       1.5558402
       8294.1190       1.3974166
       8295.1693      0.65934018
       8296.2196       1.0958350
       8297.2698      0.98730143
       8298.3201       1.3531278
       8299.3704       1.5076797
       8300.4207       1.5080703
       8301.4709       1.6697234
       8302.5212       1.6442642
       8303.5715       1.5612210
       8304.6218       1.6208258
       8305.6720       1.3594401
       8306.7223       1.2539279
       8307.7726       1.2690638
       8308.8229       1.3307455
       8309.8731       1.3241532
       8310.9234       1.4942595
       8311.9737       1.4954016
       8313.0240       1.4970488
       8314.0742       1.6011446
       8315.1245       1.4595368
       8316.1748       1.4021850
       8317.2251       1.3790489
       8318.2753       1.4337709
       8319.3256       1.4573141
       8320.3759       1.7056767
       8321.4262       2.6652146
       8322.4764       4.1663442
       8323.5267       3.8895437
       8324.5770       4.1409522
       8325.6273       2.9311388
       8326.6776       1.7507747
       8327.7278      0.13609501
       8328.7781      -1.2631617
       8329.8284      0.98193781
       8330.8787       1.0068448
       8331.9289       1.7487632
       8332.9792       1.9169240
       8334.0295       1.5341793
       8335.0798       1.8077414
       8336.1300       1.2911507
       8337.1803       1.3213967
       8338.2306       1.5105502
       8339.2809       1.2996337
       8340.3311       1.7265108
       8341.3814       1.5336751
       8342.4317       1.6460327
       8343.4820       1.7999596
       8344.5322       2.0172404
       8345.5825       2.0056205
       8346.6328       1.8933150
       8347.6831       1.5718707
       8348.7333       1.5893169
       8349.7836       1.5828830
       8350.8339       1.4912489
       8351.8842       1.1818755
       8352.9344       1.4776889
       8353.9847       1.4586074
       8355.0350       1.5276818
       8356.0853       1.5691677
       8357.1355       1.7929910
       8358.1858       1.6321917
       8359.2361       1.6930431
       8360.2864       2.1122066
       8361.3366       2.4859822
       8362.3869       2.2065065
       8363.4372       2.0864966
       8364.4875       1.9341362
       8365.5377       1.8424372
       8366.5880       1.7531013
       8367.6383       1.1956936
       8368.6886       1.0817468
       8369.7388       1.3289575
       8370.7891       1.5127190
       8371.8394       1.4130547
       8372.8897       1.3995625
       8373.9399       1.4128781
       8374.9902       1.5340901
       8376.0405       1.6482758
       8377.0908       2.0173918
       8378.1410       3.3051963
       8379.1913       3.6557711
       8380.2416       3.2420350
       8381.2919       2.0512083
       8382.3421       2.0383814
       8383.3924       1.1722728
       8384.4427     -0.52752307
       8385.4930    -0.065558119
       8386.5432      0.55484567
       8387.5935       1.7677562
       8388.6438       1.5468144
       8389.6941       1.8759689
       8390.7443       1.8045986
       8391.7946       1.5836024
       8392.8449       1.7560183
       8393.8952       1.8858155
       8394.9454       2.8205435
       8395.9957       2.2264016
       8397.0460       2.3203719
       8398.0963       1.9282987
       8399.1465       2.0590623
       8400.1968       1.0339589
       8401.2471       1.0027099
       8402.2974       1.2002549
       8403.3476       1.5086129
       8404.3979       1.3727827
       8405.4482       1.7743520
       8406.4985       1.6647864
       8407.5487       1.6384473
       8408.5990       1.7268219
       8409.6493       1.8955404
       8410.6996       4.0037019
       8411.7498       3.7445482
       8412.8001       3.1747552
       8413.8504       3.2813008
       8414.9007       2.9315957
       8415.9509       2.7830094
       8417.0012      -1.3824677
       8418.0515      0.17956009
       8419.1018       1.0164388
       8420.1520       1.4996341
       8421.2023       1.8944809
       8422.2526       2.0551314
       8423.3029       1.9048605
       8424.3531       1.8835777
       8425.4034       1.9186472
       8426.4537       1.5517379
       8427.5040       1.7463645
       8428.5542       1.6122303
       8429.6045       1.5852560
       8430.6548       1.6469796
       8431.7051       1.5556293
       8432.7554       1.7485913
       8433.8056       2.1791322
       8434.8559       2.0244659
       8435.9062       1.7434204
       8436.9565       2.4364751
       8438.0067       1.9864976
       8439.0570       1.4078454
       8440.1073      0.91476978
       8441.1576       1.3480831
       8442.2078       1.5707469
       8443.2581       1.6052675
       8444.3084       1.6613441
       8445.3587       1.6035385
       8446.4089       1.6801035
       8447.4592       2.5384835
       8448.5095       3.2042490
       8449.5598       3.0008305
       8450.6100       1.8880125
       8451.6603       2.5755322
       8452.7106       1.0726540
       8453.7609      0.65439312
       8454.8111      0.31172246
       8455.8614      0.39822670
       8456.9117       1.4324897
       8457.9620       1.6692813
       8459.0122       1.5524159
       8460.0625       1.8032925
       8461.1128       1.6544921
       8462.1631       1.6393688
       8463.2133       1.9246975
       8464.2636       1.7224325
       8465.3139       1.7855470
       8466.3642       1.8731805
       8467.4144       1.5987999
       8468.4647       1.7739215
       8469.5150       1.4734708
       8470.5653       1.3348815
       8471.6155       1.4339716
       8472.6658       1.3225065
       8473.7161       1.3535527
       8474.7664       1.4418308
       8475.8166       1.6791412
       8476.8669       1.8273848
       8477.9172       2.2847211
       8478.9675       2.1408386
       8480.0177       1.8257523
       8481.0680       1.8485269
       8482.1183       1.3524875
       8483.1686       1.2156764
       8484.2188       1.2997497
       8485.2691       1.3546650
       8486.3194       1.6971855
       8487.3697       1.6805059
       8488.4199       1.7848699
       8489.4702       2.2033360
       8490.5205       2.3698449
       8491.5708       2.3548740
       8492.6210       2.5594219
       8493.6713       1.6356236
       8494.7216       1.4849385
       8495.7719      0.41523717
       8496.8221     -0.68334288
       8497.8724       1.3596781
       8498.9227       1.4538819
       8499.9730       1.6356855
       8501.0232       1.7420581
       8502.0735       1.8517723
       8503.1238       1.7749798
       8504.1741       1.6297902
       8505.2243       1.6080828
       8506.2746       1.6677737
       8507.3249       1.6520531
       8508.3752       1.7656587
       8509.4254       1.9476067
       8510.4757       1.7672512
       8511.5260       1.7471554
       8512.5763       1.4465685
       8513.6265       1.5332489
       8514.6768       1.4838758
       8515.7271       1.2039449
       8516.7774       1.2171011
       8517.8276       1.2634839
       8518.8779       1.3710181
       8519.9282       1.2293179
       8520.9785       1.3470303
       8522.0287       1.6999516
       8523.0790       1.6686151
       8524.1293       1.8171950
       8525.1796       1.7950514
       8526.2298       2.0352663
       8527.2801       1.7513831
       8528.3304       1.3655787
       8529.3807       1.9032169
       8530.4309       1.5727805
       8531.4812       1.2361270
       8532.5315       1.4959634
       8533.5818       1.8495643
       8534.6321       1.5926469
       8535.6823       1.7789035
       8536.7326       2.1540067
       8537.7829       1.9265901
       8538.8332       2.0891918
       8539.8834       2.2675563
       8540.9337       2.2533455
       8541.9840       1.8132585
       8543.0343       1.4471051
       8544.0845       1.3438724
       8545.1348       1.2614073
       8546.1851       1.6996085
       8547.2354       1.8699703
       8548.2856       1.7120331
       8549.3359       1.8210313
       8550.3862       1.8837030
       8551.4365       1.7908482
       8552.4867       1.7249663
       8553.5370       1.7403703
       8554.5873       1.5986131
       8555.6376       1.6960924
       8556.6878       1.7689266
       8557.7381       1.5618028
       8558.7884       1.7647367
       8559.8387       1.7981691
       8560.8889       1.8998252
       8561.9392       1.8466030
       8562.9895       1.6602340
       8564.0398       1.7009035
       8565.0900       1.8234717
       8566.1403       1.8232349
       8567.1906       1.5472753
       8568.2409       1.8580305
       8569.2911       1.6854601
       8570.3414       1.7994636
       8571.3917       1.8504912
       8572.4420       1.7857522
       8573.4922       1.9776283
       8574.5425       2.1419250
       8575.5928       1.6736443
       8576.6431       1.6188042
       8577.6933       1.7144938
       8578.7436       2.1292570
       8579.7939       1.9471372
       8580.8442       1.7464215
       8581.8944       1.8099217
       8582.9447       1.7387778
       8583.9950       1.6168847
       8585.0453       1.5385250
       8586.0955       1.3926309
       8587.1458       1.8379408
       8588.1961       1.8610970
       8589.2464       1.8862945
       8590.2966       2.1063117
       8591.3469       2.3778773
       8592.3972       2.3591775
       8593.4475       2.0416592
       8594.4977       1.6510762
       8595.5480       1.3401990
       8596.5983       1.6798943
       8597.6486       1.9864808
       8598.6988       1.7287824
       8599.7491       1.9526489
       8600.7994       2.1495332
       8601.8497       2.0840290
       8602.8999       1.8761059
       8603.9502       2.0222350
       8605.0005       1.9122059
       8606.0508       2.6807444
       8607.1010       2.7525721
       8608.1513       2.0583280
       8609.2016       2.0850133
       8610.2519       1.7261100
       8611.3021       1.7347178
       8612.3524       1.0903346
       8613.4027       1.7322465
       8614.4530       1.7823581
       8615.5032       1.8805280
       8616.5535       2.1246004
       8617.6038       2.1656970
       8618.6541       1.6884236
       8619.7043       1.7945546
       8620.7546       1.8302818
       8621.8049       1.6699653
       8622.8552       1.8808129
       8623.9054       2.4967268
       8624.9557       2.8278916
       8626.0060       1.7073564
       8627.0563       2.5909481
       8628.1065       1.9200695
       8629.1568       1.8276031
       8630.2071      0.42727811
       8631.2574       1.0418609
       8632.3076       1.7686309
       8633.3579       1.2998983
       8634.4082       1.3495136
       8635.4585       1.4329020
       8636.5088       1.4953638
       8637.5590       1.5912125
       8638.6093       1.6039513
       8639.6596       1.8673590
       8640.7099       1.8066506
       8641.7601       1.9347382
       8642.8104       1.7114475
       8643.8607       1.3747552
       8644.9110       1.8391742
       8645.9612       1.5727266
       8647.0115       1.7776555
       8648.0618       1.9558200
       8649.1121       1.7878567
       8650.1623       2.0632208
       8651.2126       1.8195913
       8652.2629       1.5669831
       8653.3132       1.5137785
       8654.3634       1.8367947
       8655.4137       1.9428918
       8656.4640       1.9966382
       8657.5143       1.9156091
       8658.5645       1.6766256
       8659.6148       1.9244782
       8660.6651       1.8287148
       8661.7154       1.8992421
       8662.7656       1.8887614
       8663.8159       1.8460665
       8664.8662       1.9840066
       8665.9165       1.8358099
       8666.9667       1.9001733
       8668.0170       1.9623194
       8669.0673       1.8597873
       8670.1176       1.8591004
       8671.1678       1.9290632
       8672.2181       1.8431036
       8673.2684       1.9336753
       8674.3187       1.8559113
       8675.3689       1.8357962
       8676.4192       2.0078246
       8677.4695       1.8432578
       8678.5198       1.9637044
       8679.5700       1.8568209
       8680.6203       2.0064829
       8681.6706       1.8691717
       8682.7209       1.9282063
       8683.7711       1.8868957
       8684.8214       2.5988158
       8685.8717       3.1637508
       8686.9220       5.6444191
       8687.9722       4.5672408
       8689.0225       3.4529712
       8690.0728       3.3259244
       8691.1231       1.7346466
       8692.1733     -0.63952912
       8693.2236     -0.25023451
       8694.2739       1.9515400
       8695.3242       2.0618672
       8696.3744       2.4617571
       8697.4247       2.4388069
       8698.4750       2.3222544
       8699.5253       2.1029988
       8700.5755       1.2488294
       8701.6258       1.9236723
       8702.6761       2.1882037
       8703.7264       2.0587021
       8704.7766       1.8592696
       8705.8269       2.0397167
       8706.8772       2.0982982
       8707.9275       2.3891706
       8708.9777       2.0745278
       8710.0280       2.0204648
       8711.0783       1.4825215
       8712.1286       1.9666584
       8713.1788       1.4760756
       8714.2291       1.8394017
       8715.2794       1.7306658
       8716.3297       1.9017958
       8717.3799       2.0526313
       8718.4302       1.9196344
       8719.4805       1.9099229
       8720.5308       2.0311730
       8721.5810       1.8016184
       8722.6313       1.8976825
       8723.6816       2.0041059
       8724.7319       2.0714380
       8725.7821       1.6170331
       8726.8324       1.9248086
       8727.8827       1.9067904
       8728.9330       1.7501135
       8729.9832       1.8471073
       8731.0335       1.9751584
       8732.0838       1.8023810
       8733.1341       2.0877060
       8734.1843       1.9234118
       8735.2346       1.9094734
       8736.2849       2.2516400
       8737.3352       2.3699114
       8738.3855       2.6431193
       8739.4357       1.9781345
       8740.4860       1.4383073
       8741.5363       1.8848801
       8742.5866       1.3117216
       8743.6368       1.3389446
       8744.6871       2.0595704
       8745.7374       1.8960875
       8746.7877       1.8205722
       8747.8379       2.0269808
       8748.8882       1.8066280
       8749.9385       2.0646359
       8750.9888       2.0597871
       8752.0390       1.9403783
       8753.0893       1.9708353
       8754.1396       2.0365940
       8755.1899       2.2123399
       8756.2401       2.9619596
       8757.2904       5.5278103
       8758.3407       5.5760312
       8759.3910       3.6841509
       8760.4412       2.7973708
       8761.4915       2.0320681
       8762.5418       1.6610823
       8763.5921      -1.2681198
       8764.6423      0.45242414
       8765.6926       1.6465995
       8766.7429       1.5816096
       8767.7932       2.0353497
       8768.8434       2.1010768
       8769.8937       2.0711979
       8770.9440       2.0878400
       8771.9943       1.9876169
       8773.0445       1.6501525
       8774.0948       1.7600879
       8775.1451       1.7190792
       8776.1954       1.7456763
       8777.2456       2.2463189
       8778.2959       2.7048729
       8779.3462       2.6136689
       8780.3965       2.1577528
       8781.4467       1.7355726
       8782.4970       1.9367698
       8783.5473       1.3911131
       8784.5976       1.5813731
       8785.6478       1.6210481
       8786.6981       1.8585739
       8787.7484       1.9018737
       8788.7987       1.7362832
       8789.8489       1.9340097
       8790.8992       1.9638229
       8791.9495       1.8691134
       8792.9998       1.7360944
       8794.0500       3.2225514
       8795.1003       3.3869967
       8796.1506       2.9115678
       8797.2009       2.7568202
       8798.2511       3.0178066
       8799.3014       2.4505832
       8800.3517      0.15488659
       8801.4020    -0.034515247
       8802.4522      0.90847925
       8803.5025       2.0165147
       8804.5528       1.7569531
       8805.6031       1.8028036
       8806.6533       1.8694654
       8807.7036       1.6428584
       8808.7539       1.8881137
       8809.8042       1.6792187
       8810.8544       1.8254937
       8811.9047       1.7497940
       8812.9550       1.8251726
       8814.0053       1.7818384
       8815.0555       1.8084859
       8816.1058       2.1300102
       8817.1561       1.9871388
       8818.2064       2.9161612
       8819.2566       3.0433055
       8820.3069       3.0318003
       8821.3572       3.5544757
       8822.4075       3.4686059
       8823.4577       4.0491376
       8824.5080       5.1420083
       8825.5583       3.8558301
       8826.6086       2.1250436
       8827.6588      0.80575277
       8828.7091    -0.027605784
       8829.7594      0.48689385
       8830.8097       1.9313033
       8831.8599       2.8720422
       8832.9102       3.2491588
       8833.9605       2.4171021
       8835.0108       2.7715926
       8836.0610       3.0828624
       8837.1113       2.6124392
       8838.1616      0.68873299
       8839.2119       1.3847981
       8840.2622       2.6345632
       8841.3124      0.97791283
       8842.3627      0.94652642
       8843.4130       1.2910751
       8844.4633       1.8208822
       8845.5135       2.2042376
       8846.5638       2.0986131
       8847.6141       2.2773215
       8848.6644       2.0039788
       8849.7146       1.8646919
       8850.7649       1.6653967
       8851.8152       1.5398978
       8852.8655       2.0216770
       8853.9157       1.9282754
       8854.9660       1.6428106
       8856.0163       1.9330026
       8857.0666       1.5133520
       8858.1168       1.7350287
       8859.1671       1.7149851
       8860.2174       1.7757712
       8861.2677       1.7643651
       8862.3179       1.9832237
       8863.3682       1.7574430
       8864.4185       1.8001789
       8865.4688       1.7962511
       8866.5190       1.6605884
       8867.5693       1.7019371
       8868.6196       1.8258503
       8869.6699       1.8935949
       8870.7201       1.7721382
       8871.7704       1.8642099
       8872.8207       1.9068147
       8873.8710       1.7202197
       8874.9212       1.2466733
       8875.9715       1.5727695
       8877.0218       1.5101719
       8878.0721       2.0477249
       8879.1223       1.7140667
       8880.1726       2.0468196
       8881.2229       3.1268809
       8882.2732       4.2171158
       8883.3234       3.2164092
       8884.3737       2.4037560
       8885.4240       2.4177841
       8886.4743      0.71539361
       8887.5245     -0.74529919
       8888.5748      0.80345366
       8889.6251       1.5503671
       8890.6754       1.7340040
       8891.7256       2.5322257
       8892.7759       2.7761354
       8893.8262       2.5844683
       8894.8765       2.0439052
       8895.9267       2.3263450
       8896.9770       1.0439904
       8898.0273      0.83892734
       8899.0776       1.0016640
       8900.1278       1.4370460
       8901.1781       1.7057497
       8902.2284       1.5680376
       8903.2787       1.7188490
       8904.3289       1.7327941
       8905.3792       1.4121571
       8906.4295       1.7038906
       8907.4798       1.8629646
       8908.5300       2.0853324
       8909.5803       1.7372039
       8910.6306       2.2888357
       8911.6809       2.3405349
       8912.7311       1.9993239
       8913.7814       1.6889627
       8914.8317       1.3783973
       8915.8820       1.6317398
       8916.9322       1.7093340
       8917.9825       1.7250172
       8919.0328       1.6772472
       8920.0831       1.7217148
       8921.1333       1.8074938
       8922.1836       2.5014880
       8923.2339       2.5611935
       8924.2842       1.8029765
       8925.3344       2.4158362
       8926.3847       1.5845331
       8927.4350       1.8272478
       8928.4853       1.4349260
       8929.5355       1.3640754
       8930.5858       1.4337311
       8931.6361       1.7137149
       8932.6864       1.9000326
       8933.7366       1.5626538
       8934.7869       1.5404484
       8935.8372       1.3548644
       8936.8875       1.1651008
       8937.9377       1.3359697
       8938.9880       1.3102258
       8940.0383       1.7082259
       8941.0886       2.0861597
       8942.1389       3.1556919
       8943.1891       2.6572433
       8944.2394       2.4664299
       8945.2897       2.1262603
       8946.3400       1.8603287
       8947.3902       1.5219781
       8948.4405      0.30169098
       8949.4908      0.91348585
       8950.5411       1.4023404
       8951.5913       1.4884315
       8952.6416       1.3721991
       8953.6919       1.7172143
       8954.7422       1.5507825
       8955.7924       1.6529371
       8956.8427       1.7502192
       8957.8930       1.4121877
       8958.9433       1.3040773
       8959.9935       1.9706052
       8961.0438       1.9379269
       8962.0941       2.2201567
       8963.1444       1.9532034
       8964.1946       1.8856661
       8965.2449      0.86337843
       8966.2952       1.3632371
       8967.3455      0.62480514
       8968.3957       1.6712358
       8969.4460       1.5769726
       8970.4963       1.5267340
       8971.5466       1.9441783
       8972.5968       1.5837919
       8973.6471       1.6226569
       8974.6974       1.6671055
       8975.7477       1.5002897
       8976.7979       1.7917722
       8977.8482       3.0492358
       8978.8985       4.3260244
       8979.9488       2.5439088
       8980.9990       1.2120817
       8982.0493       2.8114984
       8983.0996       2.1653004
       8984.1499      0.72334264
       8985.2001      0.32724337
       8986.2504       1.1603619
       8987.3007       1.3658566
       8988.3510       1.3848213
       8989.4012       1.3747666
       8990.4515       1.4788830
       8991.5018       1.7603634
       8992.5521       1.5937107
       8993.6023       1.6834738
       8994.6526       1.5626831
       8995.7029       1.5660419
       8996.7532       1.6585567
       8997.8034       1.5643990
       8998.8537       1.5708532
       8999.9040       1.5180571
       9000.9543       1.6795798
       9002.0045       1.4697203
       9003.0548       1.6224578
       9004.1051       2.3210857
       9005.1554       2.1605491
       9006.2056       1.8299433
       9007.2559       1.9021056
       9008.3062       1.7903970
       9009.3565       2.1976379
       9010.4067       1.2640073
       9011.4570       1.7222696
       9012.5073       2.1509958
       9013.5576       1.6477269
       9014.6078       1.5414635
       9015.6581       1.4018506
       9016.7084       2.3203550
       9017.7587       1.4680800
       9018.8089       1.7908601
       9019.8592       2.8915539
       9020.9095       2.3276428
       9021.9598       2.9185706
       9023.0100       3.3122925
       9024.0603       1.7788713
       9025.1106      0.83944009
       9026.1609      0.89272195
       9027.2111       1.0025864
       9028.2614      0.90741824
       9029.3117       1.6936674
       9030.3620       1.6715144
       9031.4122       1.7452318
       9032.4625       1.7703300
       9033.5128       1.6421094
       9034.5631       2.2255004
       9035.6133       2.4808249
       9036.6636       3.8610975
       9037.7139       2.3640314
       9038.7642       2.6070055
       9039.8144       2.0141996
       9040.8647       2.1071321
       9041.9150       2.1228953
       9042.9653       1.5835542
       9044.0155       1.9614334
       9045.0658       2.0876489
       9046.1161       1.5473249
       9047.1664       1.5871083
       9048.2167       2.2104694
       9049.2669       2.4149787
       9050.3172       1.4666532
       9051.3675       1.6714248
       9052.4178       2.2513245
       9053.4680       1.4555548
       9054.5183       2.8718988
       9055.5686       3.2415433
       9056.6189       4.4774033
       9057.6691       1.7603662
       9058.7194       1.1412140
       9059.7697       1.2826422
       9060.8200      0.72104631
