# wavelength flux
       2582.5298     0.061421786
       2583.4187      0.14037161
       2584.3077      0.13310860
       2585.1966    -0.013427109
       2586.0856     0.020348825
       2586.9745     0.080113387
       2587.8635    -0.033461797
       2588.7524     0.019274269
       2589.6414   -0.0032664343
       2590.5303    -0.028846929
       2591.4193    -0.050686454
       2592.3082      0.11490954
       2593.1972      0.12024338
       2594.0861      0.15287061
       2594.9750     0.037229970
       2595.8640      0.14559813
       2596.7529      0.18631062
       2597.6419     0.068124197
       2598.5308     0.048198415
       2599.4198      0.12881183
       2600.3087      0.12074098
       2601.1977      0.11543608
       2602.0866      0.13802850
       2602.9756     0.025741474
       2603.8645    -0.044426890
       2604.7535    -0.091828554
       2605.6424    -0.036166597
       2606.5313      0.14272305
       2607.4203      0.22201736
       2608.3092      0.30333050
       2609.1982      0.18187175
       2610.0871     0.026972737
       2610.9761     0.070451101
       2611.8650      0.14542368
       2612.7540     0.018081059
       2613.6429      0.13928228
       2614.5319     0.072865711
       2615.4208      0.15593342
       2616.3098      0.16642083
       2617.1987      0.20093547
       2618.0877     0.063129860
       2618.9766     0.011638239
       2619.8655    -0.067077215
       2620.7545   -0.0061359472
       2621.6434      0.15248337
       2622.5324     0.096778344
       2623.4213      0.12644294
       2624.3103      0.11441392
       2625.1992     0.074525736
       2626.0882      0.14362291
       2626.9771     0.097774932
       2627.8661     0.048040025
       2628.7550     0.096285078
       2629.6440     0.016035565
       2630.5329     -0.15639298
       2631.4218     -0.10227402
       2632.3108      0.25034890
       2633.1997      0.18894425
       2634.0887      0.20702596
       2634.9776     0.087724210
       2635.8666      0.14544540
       2636.7555     0.044718208
       2637.6445    0.0041278648
       2638.5334      0.10358604
       2639.4224      0.14857658
       2640.3113      0.10949537
       2641.2003     0.040728693
       2642.0892   -0.0036655993
       2642.9781     0.071970931
       2643.8671      0.12464319
       2644.7560     0.061520560
       2645.6450    -0.042478471
       2646.5339      0.12246379
       2647.4229     0.074698929
       2648.3118     0.098879382
       2649.2008      0.24479469
       2650.0897    0.0075681662
       2650.9787   -0.0070708549
       2651.8676     0.020953716
       2652.7566     -0.11888976
       2653.6455    -0.055156955
       2654.5345     0.058693805
       2655.4234     0.061057808
       2656.3123      0.13230253
       2657.2013     0.035992369
       2658.0902    -0.040291661
       2658.9792      0.19702234
       2659.8681      0.12172830
       2660.7571    -0.075259384
       2661.6460     0.054064709
       2662.5350      0.13568067
       2663.4239      0.11517804
       2664.3129     0.094737231
       2665.2018      0.11289397
       2666.0908      0.10574966
       2666.9797    -0.019821501
       2667.8686     0.050727011
       2668.7576      0.15967333
       2669.6465     0.069104734
       2670.5355     0.080032363
       2671.4244      0.24138866
       2672.3134      0.20654500
       2673.2023     0.025677526
       2674.0913     0.045807365
       2674.9802     0.061552260
       2675.8692      0.14076936
       2676.7581     0.088401900
       2677.6471    -0.066577527
       2678.5360      0.10624907
       2679.4249      0.19269048
       2680.3139      0.25916951
       2681.2028      0.18282816
       2682.0918      0.11961099
       2682.9807      0.15664967
       2683.8697      0.29741645
       2684.7586      0.21746815
       2685.6476      0.17386268
       2686.5365   -0.0084059701
       2687.4255      0.11711187
       2688.3144      0.21762162
       2689.2034     0.051674493
       2690.0923     0.027453933
       2690.9812     0.035208042
       2691.8702     0.079610084
       2692.7591      0.19768536
       2693.6481      0.13992353
       2694.5370      0.12407382
       2695.4260      0.16722147
       2696.3149    0.0074160585
       2697.2039    -0.026159554
       2698.0928   -0.0089996979
       2698.9818      0.14169934
       2699.8707     0.058363653
       2700.7597     0.046365089
       2701.6486      0.10614875
       2702.5376      0.18862870
       2703.4265     0.025738709
       2704.3154     0.027977819
       2705.2044      0.13005839
       2706.0933      0.13103136
       2706.9823     0.043493778
       2707.8712  -0.00055464786
       2708.7602     0.043240964
       2709.6491      0.15396923
       2710.5381      0.16645139
       2711.4270    -0.019816521
       2712.3160     0.079120307
       2713.2049      0.11591519
       2714.0939     0.083394554
       2714.9828     0.046610884
       2715.8717     0.033430228
       2716.7607    0.0012339922
       2717.6496      0.11283324
       2718.5386      0.12258911
       2719.4275      0.11316180
       2720.3165     0.025382075
       2721.2054     0.072240854
       2722.0944     0.058741262
       2722.9833      0.15791179
       2723.8723      0.18159125
       2724.7612     0.019737297
       2725.6502    0.0078732852
       2726.5391     0.052631166
       2727.4280     0.051876019
       2728.3170   -0.0033728151
       2729.2059     0.090940685
       2730.0949   -0.0030916260
       2730.9838     0.082747878
       2731.8728      0.10768463
       2732.7617     0.064736932
       2733.6507    -0.038671026
       2734.5396    -0.011347981
       2735.4286     0.067626664
       2736.3175      0.14804580
       2737.2065     0.032056433
       2738.0954     0.025592958
       2738.9844     0.028039330
       2739.8733     0.092722168
       2740.7622     0.029966471
       2741.6512     0.035927864
       2742.5401     0.093422774
       2743.4291     0.095626344
       2744.3180      0.15438132
       2745.2070      0.11241165
       2746.0959     0.085033111
       2746.9849    0.0045909758
       2747.8738     0.099489472
       2748.7628      0.10236371
       2749.6517      0.11812795
       2750.5407    -0.071518034
       2751.4296     -0.17572560
       2752.3185     -0.14087626
       2753.2075     0.015645664
       2754.0964     0.062398130
       2754.9854     0.099093391
       2755.8743     0.082529295
       2756.7633    0.0013029603
       2757.6522     0.017351344
       2758.5412     0.077281557
       2759.4301      0.11448156
       2760.3191     0.065340219
       2761.2080      0.19930967
       2762.0970      0.13654158
       2762.9859     0.069905167
       2763.8748      0.10907314
       2764.7638     0.091207159
       2765.6527     0.098626326
       2766.5417      0.14347666
       2767.4306     0.029097128
       2768.3196     0.063586590
       2769.2085     0.094363555
       2770.0975     0.071017276
       2770.9864     0.065541073
       2771.8754     0.012624337
       2772.7643      0.11931384
       2773.6533      0.10675981
       2774.5422     0.062472171
       2775.4311      0.17016018
       2776.3201      0.10515756
       2777.2090      0.12890839
       2778.0980      0.13774258
       2778.9869      0.10825709
       2779.8759     0.053543695
       2780.7648     0.097321118
       2781.6538    -0.013145342
       2782.5427    -0.075674658
       2783.4317     0.024365722
       2784.3206     0.064163865
       2785.2096     0.053982637
       2786.0985     0.082445281
       2786.9875     0.042591236
       2787.8764     0.069949794
       2788.7653     0.010601344
       2789.6543     0.087390007
       2790.5432      0.10110172
       2791.4322     0.094497398
       2792.3211     0.019489064
       2793.2101      0.13871462
       2794.0990     0.021232760
       2794.9880     0.074078362
       2795.8769     0.087057333
       2796.7659     0.066753139
       2797.6548     0.084307232
       2798.5438     0.038124508
       2799.4327      0.14687907
       2800.3216      0.21735600
       2801.2106      0.12924663
       2802.0995     0.057994246
       2802.9885     0.030517489
       2803.8774      0.11014455
       2804.7664     0.062573526
       2805.6553     0.076390617
       2806.5443      0.17515936
       2807.4332      0.14105188
       2808.3222     0.063199905
       2809.2111      0.14770514
       2810.1001      0.21352037
       2810.9890      0.10443926
       2811.8779      0.10635983
       2812.7669      0.10184833
       2813.6558     0.074396796
       2814.5448     0.060791820
       2815.4337      0.10081375
       2816.3227      0.13228091
       2817.2116      0.11268739
       2818.1006      0.14727327
       2818.9895      0.17183739
       2819.8785      0.13105150
       2820.7674     0.042986575
       2821.6564      0.14434971
       2822.5453      0.16854093
       2823.4343      0.20755735
       2824.3232      0.19619285
       2825.2121      0.10719723
       2826.1011      0.12262489
       2826.9900      0.12353659
       2827.8790     0.085799551
       2828.7679     0.097717827
       2829.6569     0.064363991
       2830.5458     0.016461407
       2831.4348      0.10590840
       2832.3237      0.17203525
       2833.2127      0.15057176
       2834.1016      0.11380502
       2834.9906      0.12869198
       2835.8795     0.086105522
       2836.7684     0.053428229
       2837.6574      0.13084442
       2838.5463      0.15626409
       2839.4353      0.12514615
       2840.3242     0.084011979
       2841.2132      0.10727864
       2842.1021      0.17800838
       2842.9911      0.12468048
       2843.8800      0.11128772
       2844.7690      0.17398008
       2845.6579      0.10624873
       2846.5469     0.066978553
       2847.4358     0.042117887
       2848.3247      0.13090130
       2849.2137      0.14071353
       2850.1026     0.047068101
       2850.9916   -0.0050307222
       2851.8805     0.080453001
       2852.7695      0.12578859
       2853.6584     0.055681823
       2854.5474      0.11401024
       2855.4363      0.10189246
       2856.3253     0.051236636
       2857.2142     0.021865064
       2858.1032   -0.0068269305
       2858.9921     0.013423812
       2859.8810      0.11123568
       2860.7700      0.20073373
       2861.6589      0.11010134
       2862.5479      0.12271988
       2863.4368      0.14527068
       2864.3258      0.10370876
       2865.2147     0.087404545
       2866.1037      0.11043792
       2866.9926     0.078957973
       2867.8816     0.077819091
       2868.7705      0.10590785
       2869.6595     0.062871020
       2870.5484      0.11679457
       2871.4374      0.14395195
       2872.3263      0.16894099
       2873.2152      0.12300430
       2874.1042      0.11724542
       2874.9931      0.11106454
       2875.8821      0.13659955
       2876.7710     0.099096289
       2877.6600      0.10330326
       2878.5489      0.13910227
       2879.4379      0.15934575
       2880.3268     0.096463166
       2881.2158     0.059253034
       2882.1047     0.010451863
       2882.9937     0.067909013
       2883.8826     0.073731336
       2884.7715      0.10466243
       2885.6605      0.10314181
       2886.5494      0.11446182
       2887.4384      0.13650404
       2888.3273      0.11736793
       2889.2163     0.086501808
       2890.1052     0.073394488
       2890.9942      0.10654736
       2891.8831      0.12364073
       2892.7721     0.057017655
       2893.6610     0.083055269
       2894.5500      0.12117317
       2895.4389      0.15371737
       2896.3278      0.15734666
       2897.2168      0.11446754
       2898.1057     0.089549743
       2898.9947      0.18314143
       2899.8836      0.11932610
       2900.7726     0.090945487
       2901.6615      0.17001317
       2902.5505      0.11417848
       2903.4394      0.10440600
       2904.3284     0.098046561
       2905.2173      0.10752684
       2906.1063      0.20708335
       2906.9952      0.14336967
       2907.8842      0.14020164
       2908.7731      0.12583247
       2909.6620      0.18822890
       2910.5510      0.21484963
       2911.4399      0.23140616
       2912.3289      0.22412347
       2913.2178     0.083968962
       2914.1068      0.21945088
       2914.9957      0.21468987
       2915.8847      0.22844375
       2916.7736      0.17208585
       2917.6626      0.15265649
       2918.5515      0.17367064
       2919.4405      0.20001338
       2920.3294      0.10112220
       2921.2183      0.11306465
       2922.1073     0.076320237
       2922.9962      0.16313141
       2923.8852      0.11561294
       2924.7741      0.13543419
       2925.6631     0.039765499
       2926.5520      0.16555763
       2927.4410      0.17359857
       2928.3299      0.14817497
       2929.2189      0.15353958
       2930.1078      0.14276904
       2930.9968      0.12802044
       2931.8857      0.11943507
       2932.7746      0.13953003
       2933.6636      0.18315882
       2934.5525      0.11961381
       2935.4415     0.090234951
       2936.3304      0.12823093
       2937.2194      0.12476501
       2938.1083      0.11545767
       2938.9973     0.090065718
       2939.8862      0.15094644
       2940.7752      0.22353211
       2941.6641      0.15735360
       2942.5531      0.16252327
       2943.4420      0.15594100
       2944.3309      0.16737645
       2945.2199      0.15939944
       2946.1088      0.13140603
       2946.9978      0.11709384
       2947.8867      0.13126777
       2948.7757      0.21318230
       2949.6646      0.16859177
       2950.5536      0.15061521
       2951.4425      0.13332723
       2952.3315      0.14203923
       2953.2204      0.10511799
       2954.1094      0.13895204
       2954.9983      0.12508715
       2955.8873     0.092968092
       2956.7762      0.15809051
       2957.6651      0.12024292
       2958.5541      0.12061167
       2959.4430     0.074511434
       2960.3320      0.17706278
       2961.2209      0.14459166
       2962.1099      0.15201572
       2962.9988      0.12863464
       2963.8878      0.15933863
       2964.7767     0.085746550
       2965.6657     0.097178743
       2966.5546     0.094032199
       2967.4436      0.14334448
       2968.3325      0.11363413
       2969.2214     0.074088112
       2970.1104     0.083914839
       2970.9993      0.19022481
       2971.8883      0.13286069
       2972.7772      0.10416603
       2973.6662     0.079012715
       2974.5551      0.17140455
       2975.4441      0.18587565
       2976.3330      0.19890018
       2977.2220      0.15073353
       2978.1109      0.14932810
       2978.9999      0.10882377
       2979.8888      0.18320574
       2980.7777      0.17365499
       2981.6667      0.16756111
       2982.5556      0.15009685
       2983.4446     0.060302910
       2984.3335     0.073185311
       2985.2225      0.11909453
       2986.1114      0.16852491
       2987.0004     0.050216645
       2987.8893     0.088307999
       2988.7783      0.13013449
       2989.6672      0.17968136
       2990.5562      0.15521637
       2991.4451      0.17004738
       2992.3341      0.16820221
       2993.2230      0.15941952
       2994.1119      0.16880891
       2995.0009      0.16101260
       2995.8898      0.10488367
       2996.7788      0.22796639
       2997.6677      0.19167138
       2998.5567      0.18430859
       2999.4456      0.23242541
       3000.3346      0.18781100
       3001.2235      0.18994564
       3002.1125      0.14437375
       3003.0014     0.075980210
       3003.8904      0.13139040
       3004.7793     0.093578944
       3005.6682      0.12167502
       3006.5572      0.13580785
       3007.4461     0.061059954
       3008.3351      0.14405908
       3009.2240      0.16943595
       3010.1130      0.10701204
       3011.0019      0.13351291
       3011.8909      0.14123507
       3012.7798      0.19702992
       3013.6688      0.12579775
       3014.5577      0.18184339
       3015.4467      0.19887639
       3016.3356     0.072807160
       3017.2245      0.11168184
       3018.1135      0.13170303
       3019.0024      0.20565747
       3019.8914      0.15484097
       3020.7803     0.078090596
       3021.6693      0.10923893
       3022.5582     0.095553639
       3023.4472      0.21718798
       3024.3361      0.17823701
       3025.2251      0.13139069
       3026.1140      0.17923896
       3027.0030      0.15050327
       3027.8919      0.14465124
       3028.7808      0.17138643
       3029.6698      0.13950890
       3030.5587      0.16411499
       3031.4477      0.19250672
       3032.3366      0.14393712
       3033.2256      0.13892047
       3034.1145      0.15750674
       3035.0035      0.23630983
       3035.8924      0.24022483
       3036.7814      0.19292099
       3037.6703      0.12712310
       3038.5593      0.14606865
       3039.4482      0.20074051
       3040.3372      0.17318660
       3041.2261      0.15578043
       3042.1150      0.13057512
       3043.0040      0.14734818
       3043.8929      0.18881554
       3044.7819      0.20042311
       3045.6708      0.14224066
       3046.5598      0.16367075
       3047.4487      0.20335148
       3048.3377      0.21290938
       3049.2266      0.15106190
       3050.1156      0.11228396
       3051.0045      0.19106701
       3051.8935      0.21245090
       3052.7824      0.13588459
       3053.6713      0.14713132
       3054.5603      0.16645283
       3055.4492      0.16548738
       3056.3382      0.17501614
       3057.2271      0.13496451
       3058.1161     0.080561839
       3059.0050     0.091676756
       3059.8940      0.15188350
       3060.7829      0.17779666
       3061.6719      0.16715833
       3062.5608      0.13121377
       3063.4498      0.17984534
       3064.3387      0.15283975
       3065.2276      0.20388146
       3066.1166      0.18041545
       3067.0055      0.22683497
       3067.8945      0.14208506
       3068.7834      0.16358840
       3069.6724      0.13013327
       3070.5613      0.12589073
       3071.4503     0.097439744
       3072.3392      0.10077567
       3073.2282      0.16636651
       3074.1171      0.17669403
       3075.0061      0.18743480
       3075.8950      0.16503885
       3076.7840     0.097996776
       3077.6729      0.21879952
       3078.5618      0.17264212
       3079.4508      0.20736303
       3080.3397      0.13862580
       3081.2287      0.19466741
       3082.1176      0.16253446
       3083.0066      0.17321791
       3083.8955      0.16668743
       3084.7845      0.17013636
       3085.6734      0.18098158
       3086.5624      0.15690254
       3087.4513      0.17825487
       3088.3403      0.17380489
       3089.2292      0.16666001
       3090.1181      0.14238316
       3091.0071      0.15836890
       3091.8960      0.14180270
       3092.7850      0.15952806
       3093.6739      0.17631139
       3094.5629      0.14072735
       3095.4518      0.14604949
       3096.3408      0.20688481
       3097.2297      0.13289532
       3098.1187     0.091708217
       3099.0076      0.11825510
       3099.8966      0.16970748
       3100.7855     0.098520559
       3101.6744      0.13846492
       3102.5634      0.13664726
       3103.4523     0.085806416
       3104.3413      0.14975675
       3105.2302      0.15844746
       3106.1192      0.19328620
       3107.0081      0.18107718
       3107.8971      0.17291709
       3108.7860      0.18143491
       3109.6750      0.15761205
       3110.5639      0.13978505
       3111.4529      0.16070961
       3112.3418      0.25915272
       3113.2307      0.16703462
       3114.1197      0.12219783
       3115.0086      0.12069566
       3115.8976      0.19258382
       3116.7865      0.25227745
       3117.6755      0.18677937
       3118.5644      0.16498972
       3119.4534      0.14963114
       3120.3423      0.23484314
       3121.2313      0.23568766
       3122.1202      0.23903563
       3123.0092      0.20772754
       3123.8981      0.19598374
       3124.7871      0.21098894
       3125.6760      0.17946040
       3126.5649      0.21257144
       3127.4539      0.20190066
       3128.3428      0.24916478
       3129.2318      0.11540250
       3130.1207      0.15049873
       3131.0097      0.12637623
       3131.8986      0.14879956
       3132.7876      0.15142329
       3133.6765      0.17116233
       3134.5655      0.20066194
       3135.4544      0.18389297
       3136.3434      0.14260032
       3137.2323      0.25394110
       3138.1212      0.14965451
       3139.0102      0.20450683
       3139.8991      0.17768164
       3140.7881      0.23336299
       3141.6770      0.18112881
       3142.5660      0.17461041
       3143.4549      0.20461111
       3144.3439      0.26303023
       3145.2328      0.25429518
       3146.1218      0.18381079
       3147.0107      0.21470211
       3147.8997      0.19014166
       3148.7886      0.17364562
       3149.6775      0.22004160
       3150.5665      0.16362650
       3151.4554      0.24684298
       3152.3444      0.14209080
       3153.2333      0.17510026
       3154.1223      0.14192078
       3155.0112      0.14811087
       3155.9002      0.22465370
       3156.7891      0.23464576
       3157.6781      0.18666159
       3158.5670      0.19632426
       3159.4560      0.19240872
       3160.3449      0.17077900
       3161.2339      0.18844965
       3162.1228      0.27055918
       3163.0117      0.23733419
       3163.9007      0.16817020
       3164.7896      0.15042134
       3165.6786      0.18887663
       3166.5675      0.14409060
       3167.4565      0.22364956
       3168.3454      0.20014827
       3169.2344      0.20792185
       3170.1233      0.18511008
       3171.0123      0.18801383
       3171.9012      0.23100867
       3172.7902      0.22404821
       3173.6791      0.25128192
       3174.5680      0.24862332
       3175.4570      0.24796474
       3176.3459      0.21587594
       3177.2349      0.24300288
       3178.1238      0.23325997
       3179.0128      0.23557265
       3179.9017      0.26190042
       3180.7907      0.21769713
       3181.6796      0.26209123
       3182.5686      0.17960414
       3183.4575      0.17918085
       3184.3465      0.21066338
       3185.2354      0.18614939
       3186.1243      0.17448638
       3187.0133      0.13474342
       3187.9022      0.18796491
       3188.7912      0.18770265
       3189.6801      0.15905800
       3190.5691      0.18884640
       3191.4580      0.19663810
       3192.3470      0.23656345
       3193.2359      0.14988130
       3194.1249      0.20267533
       3195.0138      0.25110068
       3195.9028      0.23815447
       3196.7917      0.20197567
       3197.6806      0.17635564
       3198.5696      0.20894003
       3199.4585      0.19394191
       3200.3475      0.20477423
       3201.2364      0.26478076
       3202.1254      0.18988679
       3203.0143      0.17634936
       3203.9033      0.16659601
       3204.7922      0.13033060
       3205.6812      0.17058963
       3206.5701      0.24924033
       3207.4591      0.20463155
       3208.3480      0.26134656
       3209.2370      0.21332369
       3210.1259      0.25057653
       3211.0148      0.23538236
       3211.9038      0.18244321
       3212.7927      0.18468962
       3213.6817      0.25899469
       3214.5706      0.28325532
       3215.4596      0.22139212
       3216.3485      0.20566663
       3217.2375      0.21644920
       3218.1264      0.20772494
       3219.0154      0.23128656
       3219.9043      0.15511948
       3220.7933      0.15665765
       3221.6822      0.17791877
       3222.5711      0.16862970
       3223.4601      0.22037725
       3224.3490      0.23960492
       3225.2380      0.23976437
       3226.1269      0.25757383
       3227.0159      0.21799381
       3227.9048      0.26910068
       3228.7938      0.24612976
       3229.6827      0.25634774
       3230.5717      0.22741932
       3231.4606      0.19114629
       3232.3496      0.19294253
       3233.2385      0.21328294
       3234.1274      0.21412084
       3235.0164      0.18380459
       3235.9053      0.15643577
       3236.7943      0.21932048
       3237.6832      0.20101688
       3238.5722      0.20158289
       3239.4611      0.21484415
       3240.3501      0.15549155
       3241.2390      0.21873024
       3242.1280      0.13433254
       3243.0169      0.12659397
       3243.9059      0.20168256
       3244.7948      0.20089034
       3245.6838      0.15528165
       3246.5727      0.25332566
       3247.4616      0.26789977
       3248.3506      0.22276783
       3249.2395      0.19743009
       3250.1285      0.24135037
       3251.0174      0.21285387
       3251.9064      0.22510780
       3252.7953      0.17818081
       3253.6843      0.25316105
       3254.5732      0.27705664
       3255.4622      0.27165094
       3256.3511      0.27624991
       3257.2401      0.22220857
       3258.1290      0.22010582
       3259.0179      0.24153664
       3259.9069      0.26959024
       3260.7958      0.27814016
       3261.6848      0.25641761
       3262.5737      0.21747999
       3263.4627      0.23938869
       3264.3516      0.29944303
       3265.2406      0.30455347
       3266.1295      0.34479084
       3267.0185      0.29919683
       3267.9074      0.30511180
       3268.7964      0.34164418
       3269.6853      0.30316115
       3270.5742      0.32601420
       3271.4632      0.30699095
       3272.3521      0.36146572
       3273.2411      0.27383310
       3274.1300      0.27867466
       3275.0190      0.28127214
       3275.9079      0.21917250
       3276.7969      0.25453786
       3277.6858      0.22080467
       3278.5748      0.26000676
       3279.4637      0.22727886
       3280.3527      0.29515050
       3281.2416      0.25356785
       3282.1305      0.24691945
       3283.0195      0.28362837
       3283.9084      0.24007275
       3284.7974      0.27032238
       3285.6863      0.31416102
       3286.5753      0.23283044
       3287.4642      0.28064631
       3288.3532      0.30630191
       3289.2421      0.26065167
       3290.1311      0.28077422
       3291.0200      0.31860176
       3291.9090      0.26214766
       3292.7979      0.23723025
       3293.6869      0.20411698
       3294.5758      0.25836363
       3295.4647      0.33764845
       3296.3537      0.23692904
       3297.2426      0.23306494
       3298.1316      0.25967614
       3299.0205      0.29446921
       3299.9095      0.26737537
       3300.7984      0.27677470
       3301.6874      0.30440641
       3302.5763      0.35898544
       3303.4653      0.31336180
       3304.3542      0.27526380
       3305.2432      0.27355193
       3306.1321      0.27373308
       3307.0210      0.37923907
       3307.9100      0.37395218
       3308.7989      0.34679337
       3309.6879      0.34598995
       3310.5768      0.33077348
       3311.4658      0.31784412
       3312.3547      0.30590673
       3313.2437      0.32625124
       3314.1326      0.32312903
       3315.0216      0.28466685
       3315.9105      0.31424969
       3316.7995      0.34202341
       3317.6884      0.30539040
       3318.5773      0.31696137
       3319.4663      0.32889772
       3320.3552      0.32173559
       3321.2442      0.29385087
       3322.1331      0.34130181
       3323.0221      0.33469336
       3323.9110      0.30715222
       3324.8000      0.25985343
       3325.6889      0.37835033
       3326.5779      0.34484886
       3327.4668      0.30487498
       3328.3558      0.30305232
       3329.2447      0.31903242
       3330.1337      0.31392166
       3331.0226      0.34716556
       3331.9115      0.31170416
       3332.8005      0.36186358
       3333.6894      0.35640773
       3334.5784      0.31681008
       3335.4673      0.35345440
       3336.3563      0.41955434
       3337.2452      0.27362872
       3338.1342      0.29546804
       3339.0231      0.25851155
       3339.9121      0.24600403
       3340.8010      0.37322559
       3341.6900      0.29048422
       3342.5789      0.29116665
       3343.4678      0.32741914
       3344.3568      0.32277082
       3345.2457      0.30547323
       3346.1347      0.25487010
       3347.0236      0.21308730
       3347.9126      0.26219458
       3348.8015      0.25394536
       3349.6905      0.28711176
       3350.5794      0.37518858
       3351.4684      0.31583847
       3352.3573      0.23796005
       3353.2463      0.23687107
       3354.1352      0.32882163
       3355.0241      0.32436018
       3355.9131      0.24676656
       3356.8020      0.33699038
       3357.6910      0.30742465
       3358.5799      0.24603662
       3359.4689      0.25942869
       3360.3578      0.25436498
       3361.2468      0.30435544
       3362.1357      0.29479393
       3363.0247      0.32304240
       3363.9136      0.43592849
       3364.8026      0.32788332
       3365.6915      0.35293682
       3366.5804      0.31512618
       3367.4694      0.29643015
       3368.3583      0.30327474
       3369.2473      0.19731723
       3370.1362      0.28917594
       3371.0252      0.29290067
       3371.9141      0.27037518
       3372.8031      0.31196107
       3373.6920      0.25261895
       3374.5810      0.30850495
       3375.4699      0.27685573
       3376.3589      0.27214637
       3377.2478      0.26725763
       3378.1368      0.28147712
       3379.0257      0.24136036
       3379.9146      0.22939468
       3380.8036      0.32815274
       3381.6925      0.19799678
       3382.5815      0.22859690
       3383.4704      0.29998712
       3384.3594      0.31818087
       3385.2483      0.31269030
       3386.1373      0.27598415
       3387.0262      0.29581036
       3387.9152      0.33231803
       3388.8041      0.30061218
       3389.6931      0.26361628
       3390.5820      0.18259820
       3391.4709      0.37866968
       3392.3599      0.32976965
       3393.2488      0.25691498
       3394.1378      0.26621526
       3395.0267      0.29359420
       3395.9157      0.33978519
       3396.8046      0.26126228
       3397.6936      0.31676721
       3398.5825      0.29038238
       3399.4715      0.26748474
       3400.3604      0.32759847
       3401.2494      0.36366174
       3402.1383      0.27006450
       3403.0272      0.26577363
       3403.9162      0.42468313
       3404.8051      0.34838832
       3405.6941      0.38471515
       3406.5830      0.26834052
       3407.4720      0.37983101
       3408.3609      0.33782029
       3409.2499      0.35362697
       3410.1388      0.41519067
       3411.0278      0.32834500
       3411.9167      0.31783508
       3412.8057      0.42822012
       3413.6946      0.38140858
       3414.5836      0.42829231
       3415.4725      0.38773533
       3416.3614      0.31101626
       3417.2504      0.33030824
       3418.1393      0.32893075
       3419.0283      0.27569051
       3419.9172      0.34482547
       3420.8062      0.29014849
       3421.6951      0.36604362
       3422.5841      0.27728025
       3423.4730      0.30807137
       3424.3620      0.31204212
       3425.2509      0.38809942
       3426.1399      0.39508553
       3427.0288      0.38198480
       3427.9177      0.34043254
       3428.8067      0.34678478
       3429.6956      0.39932614
       3430.5846      0.39639754
       3431.4735      0.32173175
       3432.3625      0.34826648
       3433.2514      0.36186058
       3434.1404      0.35155293
       3435.0293      0.37343288
       3435.9183      0.31253964
       3436.8072      0.37528530
       3437.6962      0.36265772
       3438.5851      0.38706349
       3439.4740      0.40582995
       3440.3630      0.33641543
       3441.2519      0.32417436
       3442.1409      0.35842150
       3443.0298      0.31179508
       3443.9188      0.33658274
       3444.8077      0.45233701
       3445.6967      0.39406660
       3446.5856      0.29405664
       3447.4746      0.30127852
       3448.3635      0.20749746
       3449.2525      0.24214138
       3450.1414      0.32448318
       3451.0303      0.24410628
       3451.9193      0.31266664
       3452.8082      0.30486146
       3453.6972      0.29284156
       3454.5861      0.29133917
       3455.4751      0.40301364
       3456.3640      0.36572203
       3457.2530      0.33238102
       3458.1419      0.33588322
       3459.0309      0.48116217
       3459.9198      0.28442903
       3460.8088      0.29888802
       3461.6977      0.33184344
       3462.5867      0.29862241
       3463.4756      0.23999848
       3464.3645      0.29611537
       3465.2535      0.30176741
       3466.1424      0.34628021
       3467.0314      0.28953718
       3467.9203      0.39081395
       3468.8093      0.34745212
       3469.6982      0.25345026
       3470.5872      0.32711422
       3471.4761      0.34522100
       3472.3651      0.29864176
       3473.2540      0.24730770
       3474.1430      0.30726189
       3475.0319      0.27548661
       3475.9208      0.33518974
       3476.8098      0.39501428
       3477.6987      0.31379683
       3478.5877      0.37986358
       3479.4766      0.37987718
       3480.3656      0.39584277
       3481.2545      0.34148864
       3482.1435      0.33207568
       3483.0324      0.30992597
       3483.9214      0.33073708
       3484.8103      0.34770516
       3485.6993      0.30940294
       3486.5882      0.34827192
       3487.4771      0.28727407
       3488.3661      0.36375751
       3489.2550      0.39373537
       3490.1440      0.35424533
       3491.0329      0.34375696
       3491.9219      0.34590736
       3492.8108      0.36801076
       3493.6998      0.39615557
       3494.5887      0.28711572
       3495.4777      0.34163025
       3496.3666      0.34337659
       3497.2556      0.31283206
       3498.1445      0.35996926
       3499.0335      0.37014600
       3499.9224      0.38752105
       3500.8113      0.34383645
       3501.7003      0.29930785
       3502.5892      0.33926111
       3503.4782      0.35298019
       3504.3671      0.31119193
       3505.2561      0.31109856
       3506.1450      0.35534425
       3507.0340      0.38899041
       3507.9229      0.32635978
       3508.8119      0.37839499
       3509.7008      0.39736314
       3510.5898      0.38367753
       3511.4787      0.38479339
       3512.3676      0.37853034
       3513.2566      0.33460417
       3514.1455      0.35120480
       3515.0345      0.42893276
       3515.9234      0.43538038
       3516.8124      0.33806482
       3517.7013      0.36678414
       3518.5903      0.34565081
       3519.4792      0.40167163
       3520.3682      0.36198214
       3521.2571      0.30410085
       3522.1461      0.35595398
       3523.0350      0.29991862
       3523.9239      0.38951721
       3524.8129      0.33154320
       3525.7018      0.42626343
       3526.5908      0.47642325
       3527.4797      0.36425177
       3528.3687      0.39221963
       3529.2576      0.34954917
       3530.1466      0.25015260
       3531.0355      0.31519774
       3531.9245      0.39076487
       3532.8134      0.33073069
       3533.7024      0.34356279
       3534.5913      0.38494949
       3535.4802      0.43009023
       3536.3692      0.35922188
       3537.2581      0.33830397
       3538.1471      0.41669033
       3539.0360      0.42292360
       3539.9250      0.38794319
       3540.8139      0.34855836
       3541.7029      0.50227313
       3542.5918      0.47822715
       3543.4808      0.36794560
       3544.3697      0.34648273
       3545.2587      0.43298519
       3546.1476      0.39379432
       3547.0366      0.45509957
       3547.9255      0.47348663
       3548.8144      0.47632733
       3549.7034      0.49539008
       3550.5923      0.48549101
       3551.4813      0.43000658
       3552.3702      0.45506777
       3553.2592      0.40953821
       3554.1481      0.39671580
       3555.0371      0.48048887
       3555.9260      0.41027750
       3556.8150      0.50864693
       3557.7039      0.38216722
       3558.5929      0.45825840
       3559.4818      0.37627732
       3560.3707      0.47432468
       3561.2597      0.48465441
       3562.1486      0.37466901
       3563.0376      0.38989508
       3563.9265      0.37051120
       3564.8155      0.43982119
       3565.7044      0.45703421
       3566.5934      0.36863511
       3567.4823      0.36900262
       3568.3713      0.41507178
       3569.2602      0.43123199
       3570.1492      0.41415690
       3571.0381      0.34918146
       3571.9270      0.34920061
       3572.8160      0.36980457
       3573.7049      0.31396986
       3574.5939      0.35547101
       3575.4828      0.41400375
       3576.3718      0.35371178
       3577.2607      0.28990182
       3578.1497      0.32305652
       3579.0386      0.33019417
       3579.9276      0.36710747
       3580.8165      0.41513441
       3581.7055      0.35226297
       3582.5944      0.37435081
       3583.4834      0.35616891
       3584.3723      0.37255643
       3585.2612      0.23279229
       3586.1502      0.27574151
       3587.0391      0.38168673
       3587.9281      0.27452587
       3588.8170      0.27648585
       3589.7060      0.35859909
       3590.5949      0.32368894
       3591.4839      0.32464089
       3592.3728      0.39821506
       3593.2618      0.28088616
       3594.1507      0.32475683
       3595.0397      0.30678087
       3595.9286      0.29140812
       3596.8175      0.33281122
       3597.7065      0.37009639
       3598.5954      0.33910007
       3599.4844      0.44447012
       3600.3733      0.38465147
       3601.2623      0.45764351
       3602.1512      0.42623131
       3603.0402      0.36822247
       3603.9291      0.45554838
       3604.8181      0.53700331
       3605.7070      0.50986145
       3606.5960      0.44646291
       3607.4849      0.47687099
       3608.3738      0.40374225
       3609.2628      0.29431557
       3610.1517      0.39133020
       3611.0407      0.46509270
       3611.9296      0.42012229
       3612.8186      0.38426490
       3613.7075      0.44229014
       3614.5965      0.40583843
       3615.4854      0.42034521
       3616.3744      0.48916105
       3617.2633      0.34373657
       3618.1523      0.34483856
       3619.0412      0.46444876
       3619.9301      0.57263438
       3620.8191      0.38791433
       3621.7080      0.37912490
       3622.5970      0.53350100
       3623.4859      0.48523490
       3624.3749      0.38319720
       3625.2638      0.42765495
       3626.1528      0.38758321
       3627.0417      0.23032394
       3627.9307      0.32466244
       3628.8196      0.39697211
       3629.7086      0.49143372
       3630.5975      0.51617732
       3631.4865      0.45613667
       3632.3754      0.52339803
       3633.2643      0.47989389
       3634.1533      0.52015160
       3635.0422      0.48631006
       3635.9312      0.57227412
       3636.8201      0.51478241
       3637.7091      0.52985169
       3638.5980      0.40027355
       3639.4870      0.45012846
       3640.3759      0.45132318
       3641.2649      0.44595230
       3642.1538      0.53382313
       3643.0428      0.51140391
       3643.9317      0.45699759
       3644.8206      0.50765247
       3645.7096      0.49947686
       3646.5985      0.50756302
       3647.4875      0.54561480
       3648.3764      0.45251921
       3649.2654      0.39956455
       3650.1543      0.41819763
       3651.0433      0.55174115
       3651.9322      0.48984845
       3652.8212      0.46518541
       3653.7101      0.40541205
       3654.5991      0.42922795
       3655.4880      0.42018789
       3656.3769      0.37263118
       3657.2659      0.53892252
       3658.1548      0.57943306
       3659.0438      0.43517633
       3659.9327      0.53194250
       3660.8217      0.60309023
       3661.7106      0.50932318
       3662.5996      0.51933975
       3663.4885      0.45016932
       3664.3775      0.53152003
       3665.2664      0.56450009
       3666.1554      0.52896792
       3667.0443      0.54037198
       3667.9333      0.45569261
       3668.8222      0.57495482
       3669.7111      0.64943184
       3670.6001      0.46236985
       3671.4890      0.48562113
       3672.3780      0.55501970
       3673.2669      0.44346845
       3674.1559      0.57827505
       3675.0448      0.59580437
       3675.9338      0.43740317
       3676.8227      0.53482010
       3677.7117      0.59487221
       3678.6006      0.55178337
       3679.4896      0.51745321
       3680.3785      0.45235840
       3681.2674      0.59201788
       3682.1564      0.51384761
       3683.0453      0.45663645
       3683.9343      0.49667520
       3684.8232      0.50564625
       3685.7122      0.48519125
       3686.6011      0.47350041
       3687.4901      0.55577329
       3688.3790      0.45094799
       3689.2680      0.55514420
       3690.1569      0.45309784
       3691.0459      0.47360466
       3691.9348      0.46555990
       3692.8237      0.42094277
       3693.7127      0.45170176
       3694.6016      0.46668527
       3695.4906      0.42927787
       3696.3795      0.42720510
       3697.2685      0.55329512
       3698.1574      0.48726523
       3699.0464      0.49788613
       3699.9353      0.51010834
       3700.8243      0.60131917
       3701.7132      0.52543680
       3702.6022      0.50158419
       3703.4911      0.52936922
       3704.3800      0.56750005
       3705.2690      0.48193658
       3706.1579      0.63314099
       3707.0469      0.61677116
       3707.9358      0.59012041
       3708.8248      0.52007421
       3709.7137      0.49440002
       3710.6027      0.42850729
       3711.4916      0.33880416
       3712.3806      0.40880270
       3713.2695      0.52085584
       3714.1585      0.44844804
       3715.0474      0.50270922
       3715.9364      0.51704599
       3716.8253      0.47565750
       3717.7142      0.54627080
       3718.6032      0.61946485
       3719.4921      0.60379203
       3720.3811      0.65447420
       3721.2700      0.62183632
       3722.1590      0.49159588
       3723.0479      0.45171082
       3723.9369      0.42936759
       3724.8258      0.40664477
       3725.7148      0.46601006
       3726.6037      0.42063112
       3727.4927      0.33891635
       3728.3816      0.56022007
       3729.2705      0.55587389
       3730.1595      0.66033901
       3731.0484      0.67451688
       3731.9374      0.67607762
       3732.8263      0.57993643
       3733.7153      0.65293595
       3734.6042      0.60263772
       3735.4932      0.59864368
       3736.3821      0.51659127
       3737.2711      0.47401862
       3738.1600      0.42342546
       3739.0490      0.39212809
       3739.9379      0.53558337
       3740.8268      0.36832019
       3741.7158      0.40595783
       3742.6047      0.44947978
       3743.4937      0.48954099
       3744.3826      0.38159906
       3745.2716      0.48778664
       3746.1605      0.51514361
       3747.0495      0.57906334
       3747.9384      0.47106413
       3748.8274      0.42773576
       3749.7163      0.43769306
       3750.6053      0.41712437
       3751.4942      0.52516203
       3752.3832      0.42437967
       3753.2721      0.40540898
       3754.1610      0.41602138
       3755.0500      0.35770994
       3755.9389      0.42102074
       3756.8279      0.55515054
       3757.7168      0.47361947
       3758.6058      0.53902983
       3759.4947      0.52101484
       3760.3837      0.55184600
       3761.2726      0.60740158
       3762.1616      0.54064745
       3763.0505      0.48653169
       3763.9395      0.40933613
       3764.8284      0.52708948
       3765.7173      0.55511875
       3766.6063      0.49303720
       3767.4952      0.51680795
       3768.3842      0.51378179
       3769.2731      0.57750491
       3770.1621      0.57516040
       3771.0510      0.47039052
       3771.9400      0.51568954
       3772.8289      0.56168763
       3773.7179      0.40878331
       3774.6068      0.56018878
       3775.4958      0.59684110
       3776.3847      0.53098075
       3777.2736      0.61091374
       3778.1626      0.61291705
       3779.0515      0.55558378
       3779.9405      0.57734968
       3780.8294      0.59266866
       3781.7184      0.49594942
       3782.6073      0.52764486
       3783.4963      0.70875203
       3784.3852      0.63942668
       3785.2742      0.65797203
       3786.1631      0.70723224
       3787.0521      0.64260030
       3787.9410      0.64173881
       3788.8299      0.57136689
       3789.7189      0.58116779
       3790.6078      0.63125523
       3791.4968      0.63212613
       3792.3857      0.50040926
       3793.2747      0.55652595
       3794.1636      0.53322731
       3795.0526      0.63024795
       3795.9415      0.44928303
       3796.8305      0.59111901
       3797.7194      0.49299071
       3798.6084      0.46754454
       3799.4973      0.46860294
       3800.3863      0.50774463
       3801.2752      0.46368913
       3802.1641      0.50130940
       3803.0531      0.53739928
       3803.9420      0.55665830
       3804.8310      0.51881676
       3805.7199      0.55899776
       3806.6089      0.59618855
       3807.4978      0.62773414
       3808.3868      0.46036560
       3809.2757      0.56288280
       3810.1647      0.60659666
       3811.0536      0.58509395
       3811.9426      0.58239705
       3812.8315      0.62195572
       3813.7204      0.65985567
       3814.6094      0.62250445
       3815.4983      0.60294562
       3816.3873      0.49570496
       3817.2762      0.56735757
       3818.1652      0.52918757
       3819.0541      0.50063901
       3819.9431      0.52656637
       3820.8320      0.52868888
       3821.7210      0.53058880
       3822.6099      0.55476526
       3823.4989      0.46155699
       3824.3878      0.48949478
       3825.2767      0.49668717
       3826.1657      0.45305900
       3827.0546      0.46359853
       3827.9436      0.43583788
       3828.8325      0.44265996
       3829.7215      0.39866896
       3830.6104      0.42417838
       3831.4994      0.48764500
       3832.3883      0.46174814
       3833.2773      0.31176991
       3834.1662      0.45921815
       3835.0552      0.40373372
       3835.9441      0.39851194
       3836.8331      0.24014890
       3837.7220      0.34543679
       3838.6109      0.39947271
       3839.4999      0.41033616
       3840.3888      0.46624614
       3841.2778      0.42790341
       3842.1667      0.49003972
       3843.0557      0.43795071
       3843.9446      0.50796937
       3844.8336      0.45983356
       3845.7225      0.52671722
       3846.6115      0.52978541
       3847.5004      0.63113797
       3848.3894      0.66863191
       3849.2783      0.59388635
       3850.1672      0.50236917
       3851.0562      0.51220514
       3851.9451      0.60947655
       3852.8341      0.58063491
       3853.7230      0.67829431
       3854.6120      0.59759681
       3855.5009      0.62949232
       3856.3899      0.57010436
       3857.2788      0.51777950
       3858.1678      0.50217579
       3859.0567      0.61453308
       3859.9457      0.47809925
       3860.8346      0.48010677
       3861.7235      0.65527075
       3862.6125      0.48173779
       3863.5014      0.52271737
       3864.3904      0.53628148
       3865.2793      0.50735165
       3866.1683      0.63370270
       3867.0572      0.55518234
       3867.9462      0.65847641
       3868.8351      0.59135633
       3869.7241      0.57567174
       3870.6130      0.58641666
       3871.5020      0.67051600
       3872.3909      0.54879604
       3873.2798      0.47817961
       3874.1688      0.49804228
       3875.0577      0.53040320
       3875.9467      0.64269408
       3876.8356      0.68090984
       3877.7246      0.61629638
       3878.6135      0.64545183
       3879.5025      0.66280417
       3880.3914      0.58947590
       3881.2804      0.48116607
       3882.1693      0.52181114
       3883.0583      0.51986458
       3883.9472      0.65874223
       3884.8362      0.49798640
       3885.7251      0.49500464
       3886.6140      0.55480287
       3887.5030      0.56325808
       3888.3919      0.56058908
       3889.2809      0.49205340
       3890.1698      0.54495439
       3891.0588      0.66714234
       3891.9477      0.68275908
       3892.8367      0.62434406
       3893.7256      0.55502346
       3894.6146      0.67036346
       3895.5035      0.73963924
       3896.3925      0.68066234
       3897.2814      0.60300888
       3898.1703      0.69552417
       3899.0593      0.76196334
       3899.9482      0.63357976
       3900.8372      0.68461911
       3901.7261      0.69730800
       3902.6151      0.63875052
       3903.5040      0.70380150
       3904.3930      0.65000323
       3905.2819      0.67261449
       3906.1709      0.62266750
       3907.0598      0.68897690
       3907.9488      0.72408308
       3908.8377      0.65518975
       3909.7266      0.74458092
       3910.6156      0.74697133
       3911.5045      0.69153665
       3912.3935      0.88325055
       3913.2824      0.70066521
       3914.1714      0.72434823
       3915.0603      0.75276899
       3915.9493      0.77674896
       3916.8382      0.72454389
       3917.7272      0.63537858
       3918.6161      0.65939738
       3919.5051      0.75001002
       3920.3940      0.57275274
       3921.2830      0.79957808
       3922.1719      0.64503192
       3923.0608      0.63337043
       3923.9498      0.61878157
       3924.8387      0.67127424
       3925.7277      0.76554337
       3926.6166      0.54613644
       3927.5056      0.55606530
       3928.3945      0.53272122
       3929.2835      0.46082868
       3930.1724      0.49561975
       3931.0614      0.41577269
       3931.9503      0.37629424
       3932.8393      0.30326967
       3933.7282      0.29502569
       3934.6171      0.23453169
       3935.5061      0.32799104
       3936.3950      0.37204822
       3937.2840      0.31531133
       3938.1729      0.37868847
       3939.0619      0.57740651
       3939.9508      0.41646125
       3940.8398      0.52754463
       3941.7287      0.53029478
       3942.6177      0.49795962
       3943.5066      0.64034250
       3944.3956      0.65286052
       3945.2845      0.57854050
       3946.1734      0.76193622
       3947.0624      0.53287176
       3947.9513      0.74354149
       3948.8403      0.79784897
       3949.7292      0.84093640
       3950.6182      0.69535079
       3951.5071      0.72374538
       3952.3961      0.76347485
       3953.2850      0.76548774
       3954.1740      0.76172659
       3955.0629      0.77466296
       3955.9519      0.72020824
       3956.8408      0.65322037
       3957.7297      0.65845942
       3958.6187      0.69147675
       3959.5076      0.76026657
       3960.3966      0.63442096
       3961.2855      0.54538802
       3962.1745      0.43304307
       3963.0634      0.44769855
       3963.9524      0.48431161
       3964.8413      0.47597609
       3965.7303      0.40469586
       3966.6192      0.37608694
       3967.5082      0.41277555
       3968.3971      0.42475798
       3969.2861      0.38782197
       3970.1750      0.42171332
       3971.0639      0.50915547
       3971.9529      0.50971625
       3972.8418      0.58398612
       3973.7308      0.48626817
       3974.6197      0.63812658
       3975.5087      0.73284919
       3976.3976      0.84911906
       3977.2866      0.76014246
       3978.1755      0.80024913
       3979.0645      0.74977362
       3979.9534      0.86893750
       3980.8424      0.81222998
       3981.7313      0.85926237
       3982.6202      0.86070247
       3983.5092      0.95836742
       3984.3981      0.83175019
       3985.2871      0.86308177
       3986.1760      0.85097341
       3987.0650      0.87120500
       3987.9539      0.87830779
       3988.8429      0.95382059
       3989.7318      0.95858522
       3990.6208      0.83345003
       3991.5097       1.0012391
       3992.3987      0.92159678
       3993.2876       1.0359256
       3994.1765      0.89209417
       3995.0655      0.89808172
       3995.9544      0.99821470
       3996.8434      0.97583293
       3997.7323      0.95520977
       3998.6213      0.95834043
       3999.5102      0.99177424
       4000.3992      0.90367436
       4001.2881      0.83800127
       4002.1771      0.97658714
       4003.0660       1.0297947
       4003.9550      0.90281460
       4004.8439      0.85732248
       4005.7329      0.99908386
       4006.6218      0.94551006
       4007.5107      0.98244633
       4008.3997      0.97279565
       4009.2886       1.1073719
       4010.1776      0.93906372
       4011.0665       1.0741819
       4011.9555      0.97696167
       4012.8444       1.0745985
       4013.7334       1.0869058
       4014.6223       1.0436305
       4015.5113       1.1142976
       4016.4002       1.0328519
       4017.2892      0.93766510
       4018.1781       1.0954912
       4019.0670       1.0389767
       4019.9560       1.0225068
       4020.8449      0.96244850
       4021.7339      0.97122534
       4022.6228      0.96422778
       4023.5118      0.93679398
       4024.4007       1.0500634
       4025.2897      0.98422898
       4026.1786      0.98524949
       4027.0676      0.99471150
       4027.9565      0.96655567
       4028.8455      0.93556851
       4029.7344      0.93963053
       4030.6233      0.94312110
       4031.5123      0.85422083
       4032.4012      0.95213307
       4033.2902      0.87971874
       4034.1791       1.0244250
       4035.0681      0.95723416
       4035.9570       1.0396356
       4036.8460       1.1366229
       4037.7349       1.0448781
       4038.6239       1.0319017
       4039.5128       1.0104736
       4040.4018      0.89505618
       4041.2907      0.94077732
       4042.1796      0.83767987
       4043.0686      0.83796940
       4043.9575      0.93291932
       4044.8465       1.0328022
       4045.7354       1.0186820
       4046.6244       1.0714670
       4047.5133       1.0586215
       4048.4023      0.99277899
       4049.2912       1.0224481
       4050.1802       1.0214394
       4051.0691      0.96217531
       4051.9581      0.90414559
       4052.8470      0.92346397
       4053.7360      0.96430129
       4054.6249       1.0699545
       4055.5138       1.0231437
       4056.4028       1.0359257
       4057.2917      0.99198449
       4058.1807      0.89520458
       4059.0696      0.91511815
       4059.9586      0.90470596
       4060.8475       1.0409919
       4061.7365       1.1601619
       4062.6254       1.0197033
       4063.5144       1.0207585
       4064.4033      0.90226234
       4065.2923      0.91742648
       4066.1812      0.95368084
       4067.0701       1.0088268
       4067.9591       1.0062395
       4068.8480      0.94287350
       4069.7370      0.91701135
       4070.6259      0.88798440
       4071.5149      0.87423502
       4072.4038      0.84968079
       4073.2928      0.92103229
       4074.1817      0.90325439
       4075.0707      0.89965714
       4075.9596      0.97214086
       4076.8486       1.0029619
       4077.7375      0.97663883
       4078.6264       1.0248491
       4079.5154       1.1365586
       4080.4043      0.99668032
       4081.2933       1.0874570
       4082.1822       1.0735618
       4083.0712       1.0799920
       4083.9601       1.1862228
       4084.8491       1.0634369
       4085.7380       1.0218478
       4086.6270      0.98454177
       4087.5159      0.96475094
       4088.4049       1.0337349
       4089.2938      0.98291254
       4090.1828      0.91503958
       4091.0717       1.0384099
       4091.9606       1.0116897
       4092.8496      0.85755861
       4093.7385      0.84660137
       4094.6275      0.89475982
       4095.5164      0.90914776
       4096.4054      0.89709438
       4097.2943      0.88948246
       4098.1833      0.83048370
       4099.0722      0.98519571
       4099.9612      0.95138904
       4100.8501      0.98777941
       4101.7391       1.0112326
       4102.6280      0.88068249
       4103.5169      0.92079963
       4104.4059      0.91930761
       4105.2948       1.0516968
       4106.1838       1.0690455
       4107.0727       1.0462483
       4107.9617       1.0699272
       4108.8506       1.0502252
       4109.7396       1.0239632
       4110.6285       1.0254953
       4111.5175       1.0137671
       4112.4064      0.98091709
       4113.2954       1.0616613
       4114.1843       1.0441458
       4115.0732       1.0480512
       4115.9622       1.0447596
       4116.8511       1.0564461
       4117.7401      0.90432518
       4118.6290       1.0050539
       4119.5180       1.0540353
       4120.4069      0.98090000
       4121.2959       1.0277411
       4122.1848       1.0419411
       4123.0738       1.0022098
       4123.9627      0.92060072
       4124.8517      0.93751219
       4125.7406       1.0200572
       4126.6295       1.0392207
       4127.5185       1.0413443
       4128.4074       1.0470451
       4129.2964       1.0165582
       4130.1853       1.0901687
       4131.0743       1.1205804
       4131.9632       1.0834460
       4132.8522       1.0780096
       4133.7411       1.0166010
       4134.6301       1.0059675
       4135.5190       1.0537800
       4136.4080       1.0646414
       4137.2969       1.0075672
       4138.1859      0.94320946
       4139.0748      0.97465493
       4139.9637       1.1499302
       4140.8527       1.0388067
       4141.7416       1.0837295
       4142.6306       1.0070704
       4143.5195      0.92305357
       4144.4085      0.98807362
       4145.2974       1.0683520
       4146.1864       1.1366199
       4147.0753      0.99901101
       4147.9643       1.0475476
       4148.8532      0.98724806
       4149.7422       1.0227308
       4150.6311      0.89413164
       4151.5200      0.98565119
       4152.4090       1.0201162
       4153.2979       1.0838649
       4154.1869       1.0708301
       4155.0758       1.0568170
       4155.9648       1.0277880
       4156.8537       1.0767443
       4157.7427      0.99107951
       4158.6316       1.0129003
       4159.5206       1.0489148
       4160.4095       1.0346068
       4161.2985       1.0650073
       4162.1874      0.95682565
       4163.0763      0.95647526
       4163.9653       1.0959874
       4164.8542      0.98075829
       4165.7432      0.96134782
       4166.6321      0.94376774
       4167.5211      0.89678372
       4168.4100       1.0300139
       4169.2990       1.0294751
       4170.1879      0.98035453
       4171.0769       1.0175082
       4171.9658      0.99190131
       4172.8548       1.0510933
       4173.7437       1.0489495
       4174.6327      0.97452403
       4175.5216       1.0105915
       4176.4105       1.0059950
       4177.2995       1.0382133
       4178.1884       1.1502999
       4179.0774      0.97587799
       4179.9663       1.0013123
       4180.8553      0.98712086
       4181.7442       1.0412013
       4182.6332       1.0381058
       4183.5221       1.0698835
       4184.4111       1.0444111
       4185.3000       1.0298733
       4186.1890       1.0155065
       4187.0779      0.98236337
       4187.9668      0.94621265
       4188.8558      0.93751578
       4189.7447      0.97697866
       4190.6337       1.0003017
       4191.5226       1.0531662
       4192.4116       1.0516113
       4193.3005       1.0984742
       4194.1895       1.0243927
       4195.0784      0.90630349
       4195.9674       1.0834365
       4196.8563       1.0213209
       4197.7453       1.1606056
       4198.6342       1.0665265
       4199.5231       1.1412144
       4200.4121       1.0590570
       4201.3010       1.0992382
       4202.1900       1.2234903
       4203.0789       1.0180157
       4203.9679       1.0747982
       4204.8568       1.0852346
       4205.7458       1.1657835
       4206.6347       1.1409649
       4207.5237       1.0519096
       4208.4126       1.0802319
       4209.3016       1.1277477
       4210.1905       1.1612053
       4211.0794       1.1709442
       4211.9684       1.1555878
       4212.8573       1.1217407
       4213.7463       1.0627444
       4214.6352       1.0110932
       4215.5242      0.89123689
       4216.4131      0.91527954
       4217.3021      0.87669996
       4218.1910      0.95125900
       4219.0800      0.99693622
       4219.9689       1.0243867
       4220.8579      0.93747554
       4221.7468       1.0085940
       4222.6358       1.0774193
       4223.5247       1.0524154
       4224.4136       1.1142496
       4225.3026       1.1337027
       4226.1915      0.97221122
       4227.0805       1.0941046
       4227.9694       1.0588065
       4228.8584       1.0673927
       4229.7473       1.0910072
       4230.6363       1.1046558
       4231.5252       1.1376556
       4232.4142       1.1460887
       4233.3031       1.1883756
       4234.1921       1.1661380
       4235.0810       1.1458166
       4235.9699       1.2020251
       4236.8589       1.2505833
       4237.7478       1.1898913
       4238.6368       1.0334685
       4239.5257      0.91872598
       4240.4147      0.99773505
       4241.3036       1.0645265
       4242.1926       1.1419106
       4243.0815      0.99048991
       4243.9705      0.99652207
       4244.8594       1.1531907
       4245.7484       1.1333211
       4246.6373       1.1553690
       4247.5262       1.0666167
       4248.4152      0.96727682
       4249.3041      0.98220129
       4250.1931       1.1646699
       4251.0820       1.2138422
       4251.9710       1.2141386
       4252.8599       1.1759797
       4253.7489       1.2770574
       4254.6378       1.3113531
       4255.5268       1.2751914
       4256.4157       1.1926420
       4257.3047       1.0598214
       4258.1936       1.0905915
       4259.0826       1.1004979
       4259.9715       1.0950061
       4260.8604      0.92308401
       4261.7494      0.91924540
       4262.6383       1.0571288
       4263.5273       1.1082137
       4264.4162       1.1497766
       4265.3052       1.1400387
       4266.1941       1.0408778
       4267.0831       1.0634114
       4267.9720       1.2828444
       4268.8610       1.2050542
       4269.7499       1.0879754
       4270.6389       1.2159053
       4271.5278       1.1096923
       4272.4167       1.0965952
       4273.3057       1.0430799
       4274.1946       1.0669024
       4275.0836       1.0434876
       4275.9725       1.0682001
       4276.8615       1.0113301
       4277.7504       1.0186362
       4278.6394       1.0441577
       4279.5283      0.92618096
       4280.4173      0.98601898
       4281.3062      0.97330873
       4282.1952       1.0403398
       4283.0841       1.0268705
       4283.9730      0.99221139
       4284.8620      0.95963821
       4285.7509      0.93170916
       4286.6399      0.93111239
       4287.5288       1.0101835
       4288.4178      0.90469064
       4289.3067      0.81210953
       4290.1957      0.79916019
       4291.0846      0.86402236
       4291.9736      0.83448670
       4292.8625      0.80965971
       4293.7515      0.80477801
       4294.6404      0.89665942
       4295.5294      0.80002804
       4296.4183      0.87615956
       4297.3072      0.80379717
       4298.1962      0.92427262
       4299.0851      0.91639995
       4299.9741      0.95118108
       4300.8630       1.0469565
       4301.7520       1.0818197
       4302.6409       1.1456066
       4303.5299       1.1278436
       4304.4188       1.2649817
       4305.3078       1.2848572
       4306.1967       1.2265528
       4307.0857       1.2010937
       4307.9746       1.1741159
       4308.8635       1.1469537
       4309.7525       1.1519495
       4310.6414      0.95905501
       4311.5304      0.93876127
       4312.4193       1.0343205
       4313.3083       1.0357714
       4314.1972       1.1279248
       4315.0862       1.1580041
       4315.9751       1.1660989
       4316.8641       1.0966170
       4317.7530       1.2813745
       4318.6420       1.2599587
       4319.5309       1.1411226
       4320.4198       1.2015161
       4321.3088       1.1495617
       4322.1977       1.0934261
       4323.0867       1.1642308
       4323.9756       1.0265449
       4324.8646      0.93849145
       4325.7535      0.97506400
       4326.6425      0.97559441
       4327.5314       1.0902319
       4328.4204       1.1029539
       4329.3093       1.1025542
       4330.1983       1.0366444
       4331.0872       1.0662409
       4331.9761       1.0989931
       4332.8651       1.1793809
       4333.7540       1.1464041
       4334.6430       1.1407454
       4335.5319       1.1356644
       4336.4209       1.1210180
       4337.3098       1.1655727
       4338.1988       1.2028264
       4339.0877       1.0428019
       4339.9767       1.1340160
       4340.8656       1.1350076
       4341.7546       1.1569467
       4342.6435       1.1773231
       4343.5325       1.2733489
       4344.4214       1.2524393
       4345.3103       1.2362702
       4346.1993       1.1638215
       4347.0882       1.1843410
       4347.9772       1.2440462
       4348.8661       1.2322848
       4349.7551       1.2700872
       4350.6440       1.2211377
       4351.5330       1.2212320
       4352.4219       1.2874951
       4353.3109       1.2775561
       4354.1998       1.1820659
       4355.0888       1.0955161
       4355.9777       1.2513235
       4356.8666       1.1255578
       4357.7556       1.1250809
       4358.6445       1.1981066
       4359.5335       1.1286361
       4360.4224       1.0743240
       4361.3114       1.2124548
       4362.2003       1.1864063
       4363.0893       1.1201263
       4363.9782       1.1470563
       4364.8672       1.1060925
       4365.7561       1.0452454
       4366.6451       1.0295360
       4367.5340       1.0106040
       4368.4229       1.0097410
       4369.3119      0.99164387
       4370.2008      0.95583746
       4371.0898       1.0480031
       4371.9787       1.0351860
       4372.8677      0.95502706
       4373.7566       1.1011421
       4374.6456       1.1157861
       4375.5345       1.1647701
       4376.4235       1.1745125
       4377.3124       1.1469897
       4378.2014       1.1693684
       4379.0903       1.2313994
       4379.9793       1.1653408
       4380.8682       1.1974318
       4381.7571       1.2919380
       4382.6461       1.1412400
       4383.5350       1.1898417
       4384.4240       1.2924913
       4385.3129       1.2878161
       4386.2019       1.1272544
       4387.0908       1.0382380
       4387.9798       1.0440452
       4388.8687       1.1470525
       4389.7577       1.1567591
       4390.6466       1.1720059
       4391.5356       1.2719724
       4392.4245       1.2731847
       4393.3134       1.1882928
       4394.2024       1.2549867
       4395.0913       1.1958787
       4395.9803       1.3479709
       4396.8692       1.3092637
       4397.7582       1.2385450
       4398.6471       1.2231268
       4399.5361       1.2604918
       4400.4250       1.2091234
       4401.3140       1.1719678
       4402.2029       1.3206083
       4403.0919       1.2970826
       4403.9808       1.3092246
       4404.8697       1.2763231
       4405.7587       1.1589869
       4406.6476       1.0899756
       4407.5366       1.1711398
       4408.4255       1.1842966
       4409.3145       1.3167117
       4410.2034       1.2422762
       4411.0924       1.2615612
       4411.9813       1.3403828
       4412.8703       1.2411361
       4413.7592       1.2858684
       4414.6482       1.1833830
       4415.5371       1.1488387
       4416.4260       1.1251308
       4417.3150       1.1621866
       4418.2039       1.1624821
       4419.0929       1.2901960
       4419.9818       1.2745845
       4420.8708       1.2758423
       4421.7597       1.2557797
       4422.6487       1.2872970
       4423.5376       1.2671311
       4424.4266       1.4234320
       4425.3155       1.2578375
       4426.2045       1.1846128
       4427.0934       1.3067989
       4427.9824       1.2995607
       4428.8713       1.2782994
       4429.7602       1.3618576
       4430.6492       1.4178484
       4431.5381       1.4078183
       4432.4271       1.2716582
       4433.3160       1.2480126
       4434.2050       1.2479000
       4435.0939       1.1995091
       4435.9829       1.2467104
       4436.8718       1.0952940
       4437.7608       1.1370369
       4438.6497       1.1640293
       4439.5387       1.1682217
       4440.4276       1.2104777
       4441.3165       1.1157460
       4442.2055       1.1317363
       4443.0944       1.1793953
       4443.9834       1.2433617
       4444.8723       1.1888629
       4445.7613       1.1987469
       4446.6502       1.2952499
       4447.5392       1.3191707
       4448.4281       1.2532039
       4449.3171       1.2609628
       4450.2060       1.2579994
       4451.0950       1.3030939
       4451.9839       1.3065654
       4452.8728       1.3805584
       4453.7618       1.3452148
       4454.6507       1.3155729
       4455.5397       1.2929248
       4456.4286       1.3134832
       4457.3176       1.3789876
       4458.2065       1.3671264
       4459.0955       1.3495337
       4459.9844       1.3879754
       4460.8734       1.2839091
       4461.7623       1.3129979
       4462.6513       1.3829455
       4463.5402       1.3908806
       4464.4292       1.4048834
       4465.3181       1.3623844
       4466.2070       1.3396881
       4467.0960       1.3781187
       4467.9849       1.4244643
       4468.8739       1.3823876
       4469.7628       1.3997696
       4470.6518       1.4104785
       4471.5407       1.2659247
       4472.4297       1.2281777
       4473.3186       1.3390146
       4474.2076       1.3581077
       4475.0965       1.3407337
       4475.9855       1.3103848
       4476.8744       1.3473802
       4477.7633       1.3767457
       4478.6523       1.3034854
       4479.5412       1.2915507
       4480.4302       1.3885884
       4481.3191       1.4148841
       4482.2081       1.3271100
       4483.0970       1.4022557
       4483.9860       1.4644398
       4484.8749       1.4764708
       4485.7639       1.3652417
       4486.6528       1.3758092
       4487.5418       1.3866567
       4488.4307       1.4363831
       4489.3196       1.4608302
       4490.2086       1.4258785
       4491.0975       1.3695942
       4491.9865       1.3548721
       4492.8754       1.2253334
       4493.7644       1.1084143
       4494.6533       1.1635369
       4495.5423       1.2901370
       4496.4312       1.3073023
       4497.3202       1.3634038
       4498.2091       1.3410788
       4499.0981       1.2610580
       4499.9870       1.3409821
       4500.8759       1.2968993
       4501.7649       1.2464647
       4502.6538       1.1651031
       4503.5428       1.1628597
       4504.4317       1.1743238
       4505.3207       1.1579614
       4506.2096       1.1761448
       4507.0986       1.1724771
       4507.9875       1.2299145
       4508.8765       1.0792569
       4509.7654       1.1405261
       4510.6544       1.2062337
       4511.5433       1.1198398
       4512.4323       1.0712360
       4513.3212       1.1222443
       4514.2101       1.2087616
       4515.0991       1.2823198
       4515.9880       1.2941368
       4516.8770       1.3077785
       4517.7659       1.3446165
       4518.6549       1.2077438
       4519.5438       1.1723733
       4520.4328       1.1444349
       4521.3217       1.1418049
       4522.2107       1.2131255
       4523.0996       1.1450348
       4523.9886       1.0891083
       4524.8775       1.0355720
       4525.7664       1.1589947
       4526.6554       1.1644119
       4527.5443       1.1221005
       4528.4333       1.1573078
       4529.3222       1.2206065
       4530.2112       1.1135802
       4531.1001       1.0478198
       4531.9891       1.1251028
       4532.8780       1.0654865
       4533.7670       1.0798264
       4534.6559       1.1941477
       4535.5449       1.1765029
       4536.4338       1.1177557
       4537.3227       1.1507957
       4538.2117       1.0831113
       4539.1006       1.0443659
       4539.9896       1.0462173
       4540.8785       1.1342533
       4541.7675       1.0880595
       4542.6564      0.68149938
       4543.5454      0.61037019
       4544.4343      0.52819756
       4545.3233      0.77135494
       4546.2122      0.90041161
       4547.1012       1.0159356
       4547.9901      0.92869317
       4548.8791       1.4449891
       4549.7680       1.3678469
       4550.6569      0.49079209
       4551.5459      0.87322203
       4552.4348      0.97145390
       4553.3238      0.95519680
       4554.2127      0.87725037
       4555.1017      0.98312150
       4555.9906       1.0210481
       4556.8796      0.92250793
       4557.7685      0.94985026
       4558.6575      0.93970567
       4559.5464      0.88079051
       4560.4354      0.84921018
       4561.3243      0.83395268
       4562.2132      0.90520666
       4563.1022      0.90344107
       4563.9911      0.85964090
       4564.8801      0.80952278
       4565.7690      0.83970989
       4566.6580      0.83962194
       4567.5469      0.85647569
       4568.4359      0.80045227
       4569.3248      0.81932438
       4570.2138      0.74594148
       4571.1027      0.70897026
       4571.9917      0.71823281
       4572.8806      0.71906376
       4573.7695      0.63295572
       4574.6585      0.73338758
       4575.5474      0.69251664
       4576.4364      0.68588845
       4577.3253      0.63548287
       4578.2143      0.70673082
       4579.1032      0.78252463
       4579.9922      0.73417920
       4580.8811      0.61285890
       4581.7701      0.59388416
       4582.6590      0.66463827
       4583.5480      0.72774121
       4584.4369      0.79076270
       4585.3258      0.76644500
       4586.2148      0.68783191
       4587.1037      0.72856699
       4587.9927      0.65952694
       4588.8816      0.55124737
       4589.7706      0.60793780
       4590.6595      0.66144131
       4591.5485      0.57437415
       4592.4374      0.68818820
       4593.3264      0.67914449
       4594.2153      0.56990014
       4595.1043      0.56671957
       4595.9932      0.61251241
       4596.8822      0.52401529
       4597.7711      0.55488515
       4598.6600      0.58335073
       4599.5490      0.61100668
       4600.4379      0.58482357
       4601.3269      0.50905414
       4602.2158      0.46739155
       4603.1048      0.53369805
       4603.9937      0.55722100
       4604.8827      0.37946968
       4605.7716      0.39880045
       4606.6606      0.48136784
       4607.5495      0.45833609
       4608.4385      0.49388987
       4609.3274      0.53091792
       4610.2163      0.44466676
       4611.1053      0.39817644
       4611.9942      0.50477180
       4612.8832      0.42668633
       4613.7721      0.42807205
       4614.6611      0.40246486
       4615.5500      0.38259369
       4616.4390      0.41009908
       4617.3279      0.35224877
       4618.2169      0.32411558
       4619.1058      0.30961494
       4619.9948      0.35876518
       4620.8837      0.37261551
       4621.7726      0.29225018
       5694.3135       3.5210788
       5695.2783       3.9870041
       5696.2431       4.4227962
       5697.2079       3.5307468
       5698.1727       3.0585676
       5699.1375       2.7415063
       5700.1024       2.6146518
       5701.0672       2.5486501
       5702.0320       2.7375489
       5702.9968       2.8492667
       5703.9616       2.8132641
       5704.9264       2.9311193
       5705.8912       3.0300400
       5706.8560       3.3658793
       5707.8208       3.4906828
       5708.7856       3.3017605
       5709.7505       3.3066875
       5710.7153       3.3118841
       5711.6801       3.3287402
       5712.6449       3.2654903
       5713.6097       3.2730023
       5714.5745       3.2320597
       5715.5393       3.1811849
       5716.5041       3.2243342
       5717.4689       3.3182398
       5718.4338       3.2164619
       5719.3986       3.3036684
       5720.3634       3.3012214
       5721.3282       3.2782110
       5722.2930       3.3069088
       5723.2578       3.4237129
       5724.2226       3.3919122
       5725.1874       3.3674316
       5726.1522       3.2867567
       5727.1170       3.3798977
       5728.0819       3.5177251
       5729.0467       3.4510826
       5730.0115       3.3042561
       5730.9763       3.4744521
       5731.9411       3.5102442
       5732.9059       3.5639149
       5733.8707       3.8344178
       5734.8355       3.8133284
       5735.8003       3.5930347
       5736.7651       3.7077009
       5737.7300       3.7011450
       5738.6948       3.5738025
       5739.6596       3.4692336
       5740.6244       3.4649099
       5741.5892       3.4933939
       5742.5540       3.4542855
       5743.5188       3.4274306
       5744.4836       3.4470342
       5745.4484       3.4975298
       5746.4133       3.6628082
       5747.3781       3.6915199
       5748.3429       3.5927787
       5749.3077       3.6776029
       5750.2725       3.5050140
       5751.2373       3.3755092
       5752.2021       3.5295984
       5753.1669       3.5763608
       5754.1317       3.5005362
       5755.0965       3.4546005
       5756.0614       3.6168481
       5757.0262       3.6028469
       5757.9910       3.4328407
       5758.9558       3.6208444
       5759.9206       3.6090972
       5760.8854       3.4734689
       5761.8502       3.5656090
       5762.8150       3.5280942
       5763.7798       3.6324858
       5764.7447       3.4458305
       5765.7095       3.5720811
       5766.6743       3.5039994
       5767.6391       3.5094034
       5768.6039       3.2699899
       5769.5687       3.3360003
       5770.5335       3.1889805
       5771.4983       3.1333035
       5772.4631       3.1349078
       5773.4279       3.2096597
       5774.3928       3.2860754
       5775.3576       3.3156155
       5776.3224       3.2708736
       5777.2872       3.3525198
       5778.2520       3.2635994
       5779.2168       3.3019024
       5780.1816       3.4208555
       5781.1464       3.4652873
       5782.1112       3.4811848
       5783.0761       3.5379083
       5784.0409       3.5120204
       5785.0057       3.5553233
       5785.9705       3.5192945
       5786.9353       3.5437579
       5787.9001       3.6348292
       5788.8649       3.5939371
       5789.8297       3.5518152
       5790.7945       3.6936777
       5791.7593       3.6132203
       5792.7242       3.6840803
       5793.6890       3.7060906
       5794.6538       3.5381402
       5795.6186       3.5796422
       5796.5834       3.5611245
       5797.5482       3.6817987
       5798.5130       3.7720544
       5799.4778       3.6761692
       5800.4426       3.7105718
       5801.4075       3.6288936
       5802.3723       3.7043309
       5803.3371       3.6328489
       5804.3019       3.6062164
       5805.2667       3.6450861
       5806.2315       3.6276336
       5807.1963       3.6807177
       5808.1611       3.6633785
       5809.1259       3.6956580
       5810.0907       4.0059483
       5811.0556       3.8745620
       5812.0204       4.0859237
       5812.9852       3.7364970
       5813.9500       3.7866484
       5814.9148       3.6490154
       5815.8796       3.7318670
       5816.8444       3.6642026
       5817.8092       3.6121884
       5818.7740       3.5329715
       5819.7389       3.6359081
       5820.7037       3.6731904
       5821.6685       3.6991491
       5822.6333       3.7589568
       5823.5981       3.9098322
       5824.5629       3.7918008
       5825.5277       3.5605023
       5826.4925       3.6696787
       5827.4573       3.7726823
       5828.4221       3.6718235
       5829.3870       3.6611283
       5830.3518       3.8090234
       5831.3166       3.8189093
       5832.2814       3.7455938
       5833.2462       3.7040595
       5834.2110       3.9487652
       5835.1758       3.7765572
       5836.1406       3.7265312
       5837.1054       3.7821541
       5838.0702       3.7953862
       5839.0351       3.6802256
       5839.9999       3.7797765
       5840.9647       3.7372149
       5841.9295       3.6399741
       5842.8943       3.6737527
       5843.8591       3.5541016
       5844.8239       3.3313823
       5845.7887       3.4430413
       5846.7535       3.4020071
       5847.7184       3.3118554
       5848.6832       3.5553026
       5849.6480       3.5491455
       5850.6128       3.5764358
       5851.5776       3.5872262
       5852.5424       3.5305824
       5853.5072       3.5560453
       5854.4720       3.6389888
       5855.4368       3.5766918
       5856.4016       3.5363847
       5857.3665       3.5444827
       5858.3313       3.6455128
       5859.2961       3.6025003
       5860.2609       3.5801297
       5861.2257       3.7099016
       5862.1905       3.7800080
       5863.1553       3.7681596
       5864.1201       3.8477565
       5865.0849       3.8358076
       5866.0498       3.6343089
       5867.0146       3.7222335
       5867.9794       3.6571908
       5868.9442       3.5613081
       5869.9090       3.5675952
       5870.8738       3.6339971
       5871.8386       3.4354777
       5872.8034       3.5155003
       5873.7682       3.4951595
       5874.7330       3.5447247
       5875.6979       3.5869687
       5876.6627       3.5586134
       5877.6275       3.4575868
       5878.5923       3.3977672
       5879.5571       3.3185184
       5880.5219       3.1145131
       5881.4867       2.9304310
       5882.4515       2.8238378
       5883.4163       2.7358699
       5884.3812       2.6239708
       5885.3460       2.7441487
       5886.3108       2.6998141
       5887.2756       2.6605479
       5888.2404       2.6184706
       5889.2052       2.8538458
       5890.1700       2.7925434
       5891.1348       2.8832355
       5892.0996       2.9041351
       5893.0644       3.0001654
       5894.0293       3.2951003
       5894.9941       3.3625442
       5895.9589       3.4968855
       5896.9237       3.4982481
       5897.8885       3.5542142
       5898.8533       3.5929163
       5899.8181       3.6423596
       5900.7829       3.7354547
       5901.7477       3.6734983
       5902.7126       3.7934021
       5903.6774       3.7536929
       5904.6422       3.5938935
       5905.6070       3.6382986
       5906.5718       3.6400694
       5907.5366       3.6882183
       5908.5014       3.7754570
       5909.4662       3.6762620
       5910.4310       3.6285638
       5911.3958       3.7699365
       5912.3607       3.6691731
       5913.3255       3.8757498
       5914.2903       3.7226931
       5915.2551       3.7526035
       5916.2199       3.8378769
       5917.1847       3.8843413
       5918.1495       3.8546274
       5919.1143       3.8004636
       5920.0791       3.7605637
       5921.0440       3.5645904
       5922.0088       3.3621385
       5922.9736       3.4864524
       5923.9384       3.6816640
       5924.9032       3.8132116
       5925.8680       3.9375243
       5926.8328       3.6176285
       5927.7976       3.5887017
       5928.7624       3.6391822
       5929.7272       3.8153028
       5930.6921       3.7100090
       5931.6569       3.6144087
       5932.6217       3.7317855
       5933.5865       3.7711693
       5934.5513       3.7542040
       5935.5161       3.8914580
       5936.4809       3.7614238
       5937.4457       3.7609174
       5938.4105       3.7886258
       5939.3754       3.7046976
       5940.3402       3.6541617
       5941.3050       3.5896194
       5942.2698       3.8395434
       5943.2346       3.8491314
       5944.1994       3.8299854
       5945.1642       3.8196965
       5946.1290       3.7868226
       5947.0938       3.8102791
       5948.0586       3.8279596
       5949.0235       3.7073434
       5949.9883       3.8334364
       5950.9531       3.8466451
       5951.9179       3.6621518
       5952.8827       3.6450783
       5953.8475       3.6153570
       5954.8123       3.4791984
       5955.7771       3.8594111
       5956.7419       4.0353510
       5957.7067       3.9478760
       5958.6716       3.8324849
       5959.6364       4.1220129
       5960.6012       4.0665415
       5961.5660       4.0625194
       5962.5308       4.0387834
       5963.4956       4.0708519
       5964.4604       4.0438873
       5965.4252       4.0813932
       5966.3900       3.9635826
       5967.3549       4.0115808
       5968.3197       4.0269500
       5969.2845       4.0469245
       5970.2493       3.9599688
       5971.2141       4.0163021
       5972.1789       3.8387149
       5973.1437       3.7311373
       5974.1085       3.7883744
       5975.0733       3.8606023
       5976.0381       3.8756086
       5977.0030       3.8911958
       5977.9678       3.7419248
       5978.9326       3.8461084
       5979.8974       3.8570775
       5980.8622       3.8423938
       5981.8270       3.8464467
       5982.7918       3.9216531
       5983.7566       4.0308428
       5984.7214       4.0791322
       5985.6863       4.0053580
       5986.6511       3.9431177
       5987.6159       3.8203640
       5988.5807       3.8847294
       5989.5455       3.9662632
       5990.5103       4.0415516
       5991.4751       4.1732827
       5992.4399       4.1865725
       5993.4047       4.2928999
       5994.3695       4.2072210
       5995.3344       4.1723236
       5996.2992       4.1510221
       5997.2640       4.0645128
       5998.2288       4.0326402
       5999.1936       3.8348750
       6000.1584       3.7282273
       6001.1232       3.8859810
       6002.0880       3.8409286
       6003.0528       3.8913186
       6004.0177       4.0335364
       6004.9825       4.0073734
       6005.9473       4.1207708
       6006.9121       3.8736321
       6007.8769       3.5794002
       6008.8417       3.3980052
       6009.8065       3.6934910
       6010.7713       3.6951703
       6011.7361       3.8273669
       6012.7009       3.9150494
       6013.6658       4.0060759
       6014.6306       4.2086603
       6015.5954       4.0040839
       6016.5602       4.0914234
       6017.5250       3.8417433
       6018.4898       3.8812468
       6019.4546       3.9567001
       6020.4194       3.9213195
       6021.3842       3.9913675
       6022.3491       3.7403408
       6023.3139       3.9928568
       6024.2787       3.9667753
       6025.2435       3.7559856
       6026.2083       3.8811917
       6027.1731       4.0271037
       6028.1379       4.2110790
       6029.1027       4.2465099
       6030.0675       4.2854668
       6031.0323       4.1145499
       6031.9972       4.0297475
       6032.9620       3.9032681
       6033.9268       4.1929101
       6034.8916       4.0350778
       6035.8564       4.0574288
       6036.8212       4.3221577
       6037.7860       4.1884617
       6038.7508       4.4892818
       6039.7156       4.1925472
       6040.6805       4.2099058
       6041.6453       4.4077463
       6042.6101       4.2995141
       6043.5749       4.2262907
       6044.5397       4.1607841
       6045.5045       4.2163406
       6046.4693       4.3151517
       6047.4341       4.2477050
       6048.3989       4.2262209
       6049.3637       4.2934212
       6050.3286       4.1322531
       6051.2934       4.1416994
       6052.2582       4.1123928
       6053.2230       4.0288335
       6054.1878       4.1038702
       6055.1526       4.1778885
       6056.1174       4.2877194
       6057.0822       4.2682458
       6058.0470       4.2226946
       6059.0118       4.1270132
       6059.9767       4.1754389
       6060.9415       4.2182813
       6061.9063       4.2607948
       6062.8711       4.2757739
       6063.8359       4.1840098
       6064.8007       4.2037244
       6065.7655       4.2594131
       6066.7303       4.3297069
       6067.6951       4.2740384
       6068.6600       4.3772895
       6069.6248       4.3618944
       6070.5896       4.3251524
       6071.5544       4.2733089
       6072.5192       4.3615488
       6073.4840       4.1642710
       6074.4488       4.1387884
       6075.4136       4.1935854
       6076.3784       4.3518147
       6077.3432       4.2514761
       6078.3081       4.2100337
       6079.2729       4.1208110
       6080.2377       4.1981332
       6081.2025       4.2016175
       6082.1673       4.0461730
       6083.1321       4.1371886
       6084.0969       3.9926974
       6085.0617       3.8427246
       6086.0265       3.9551535
       6086.9914       4.2350571
       6087.9562       4.1126055
       6088.9210       4.0758182
       6089.8858       3.9697573
       6090.8506       4.2359376
       6091.8154       4.2099142
       6092.7802       4.2828281
       6093.7450       4.2260587
       6094.7098       4.3198979
       6095.6746       4.3295507
       6096.6395       4.1037312
       6097.6043       4.0832086
       6098.5691       4.1139537
       6099.5339       4.0797859
       6100.4987       3.9927689
       6101.4635       4.1016800
       6102.4283       4.0727954
       6103.3931       4.1754623
       6104.3579       4.1463411
       6105.3228       4.1632177
       6106.2876       4.1590877
       6107.2524       4.1603206
       6108.2172       4.2750671
       6109.1820       4.2680095
       6110.1468       4.3617237
       6111.1116       4.3652452
       6112.0764       4.4546518
       6113.0412       4.4177394
       6114.0060       4.2900739
       6114.9709       4.2119267
       6115.9357       4.5048028
       6116.9005       4.3022398
       6117.8653       4.1050943
       6118.8301       4.1031730
       6119.7949       4.1411029
       6120.7597       4.0874939
       6121.7245       4.0474994
       6122.6893       4.0874169
       6123.6542       4.1623088
       6124.6190       4.2563791
       6125.5838       4.1925064
       6126.5486       4.2335072
       6127.5134       4.1650112
       6128.4782       4.2562400
       6129.4430       4.4336910
       6130.4078       4.2456619
       6131.3726       4.3267877
       6132.3374       4.2469123
       6133.3023       4.3800656
       6134.2671       4.3090786
       6135.2319       4.1445015
       6136.1967       4.1609416
       6137.1615       4.0837264
       6138.1263       4.1230486
       6139.0911       4.2733331
       6140.0559       4.2046886
       6141.0207       4.2594082
       6141.9856       4.3544881
       6142.9504       4.3876050
       6143.9152       4.3512312
       6144.8800       4.4160779
       6145.8448       4.4082794
       6146.8096       4.3068385
       6147.7744       4.3197130
       6148.7392       4.3662735
       6149.7040       4.3688611
       6150.6688       4.4861479
       6151.6337       4.4373961
       6152.5985       4.4384667
       6153.5633       4.4026997
       6154.5281       4.3493193
       6155.4929       4.1981427
       6156.4577       4.2232913
       6157.4225       4.2774263
       6158.3873       4.1250264
       6159.3521       3.8793270
       6160.3170       3.9278129
       6161.2818       4.0304949
       6162.2466       3.8748102
       6163.2114       3.8875938
       6164.1762       4.0612440
       6165.1410       4.2455374
       6166.1058       3.9875866
       6167.0706       4.0058555
       6168.0354       4.3485221
       6169.0002       4.3638683
       6169.9651       4.0651667
       6170.9299       3.8701309
       6171.8947       3.8520527
       6172.8595       4.1803939
       6173.8243       4.2276648
       6174.7891       4.2748596
       6175.7539       4.2960392
       6176.7187       4.1868730
       6177.6835       4.2848756
       6178.6483       4.2540209
       6179.6132       4.2113882
       6180.5780       4.2388220
       6181.5428       4.2039719
       6182.5076       4.1993876
       6183.4724       4.2817233
       6184.4372       4.2873337
       6185.4020       4.2535210
       6186.3668       4.2166933
       6187.3316       4.1956811
       6188.2965       4.2784943
       6189.2613       3.9596433
       6190.2261       3.9436766
       6191.1909       4.0761974
       6192.1557       4.0090516
       6193.1205       4.0233692
       6194.0853       4.1128328
       6195.0501       4.3021466
       6196.0149       4.1711096
       6196.9797       4.1132577
       6197.9446       4.1698531
       6198.9094       4.2064187
       6199.8742       4.1677216
       6200.8390       4.2203532
       6201.8038       4.1845135
       6202.7686       4.1445904
       6203.7334       4.3049342
       6204.6982       4.3867889
       6205.6630       4.3764274
       6206.6279       4.5869813
       6207.5927       4.5741947
       6208.5575       4.4356250
       6209.5223       4.4857660
       6210.4871       4.5077587
       6211.4519       4.3583337
       6212.4167       4.1597591
       6213.3815       4.1852253
       6214.3463       4.2286643
       6215.3111       4.1582948
       6216.2760       3.9674170
       6217.2408       3.9899972
       6218.2056       3.9378943
       6219.1704       4.0360081
       6220.1352       4.0658024
       6221.1000       4.0367241
       6222.0648       3.8686472
       6223.0296       3.6296777
       6223.9944       3.2086623
       6224.9593       2.8881313
       6225.9241       2.6761884
       6226.8889             NaN
       6227.8537             NaN
       6228.8185             NaN
       6229.7833             NaN
       6230.7481             NaN
       6231.7129             NaN
       6232.6777             NaN
       6233.6425             NaN
       6234.6074             NaN
       6235.5722             NaN
       6236.5370             NaN
       6237.5018             NaN
       6238.4666             NaN
       6239.4314             NaN
       6240.3962             NaN
       6241.3610             NaN
       6242.3258             NaN
       6243.2907             NaN
       6244.2555             NaN
       6245.2203             NaN
       6246.1851             NaN
       6247.1499             NaN
       6248.1147             NaN
       6249.0795             NaN
       6250.0443             NaN
       6251.0091             NaN
       6251.9739             NaN
       6252.9388             NaN
       6253.9036             NaN
       6254.8684             NaN
       6255.8332             NaN
       6256.7980             NaN
       6257.7628             NaN
       6258.7276             NaN
       6259.6924             NaN
       6260.6572             NaN
       6261.6221             NaN
       6262.5869             NaN
       6263.5517             NaN
       6264.5165             NaN
       6265.4813             NaN
       6266.4461             NaN
       6267.4109             NaN
       6268.3757             NaN
       6269.3405             NaN
       6270.3053             NaN
       6271.2702             NaN
       6272.2350             NaN
       6273.1998             NaN
       6274.1646             NaN
       6275.1294             NaN
       6276.0942             NaN
       6277.0590             NaN
       6278.0238             NaN
       6278.9886             NaN
       6279.9534             NaN
       6280.9183             NaN
       6281.8831             NaN
       6282.8479             NaN
       6283.8127             NaN
       6284.7775             NaN
       6285.7423             NaN
       6286.7071             NaN
       6287.6719             NaN
       6288.6367             NaN
       6289.6016             NaN
       6290.5664             NaN
       6291.5312             NaN
       6292.4960             NaN
       6293.4608             NaN
       6294.4256             NaN
       6295.3904             NaN
       6296.3552             NaN
       6297.3200             NaN
       6298.2848             NaN
       6299.2497             NaN
       6300.2145             NaN
       6301.1793             NaN
       6302.1441             NaN
       6303.1089             NaN
       6304.0737             NaN
       6305.0385             NaN
       6306.0033             NaN
       6306.9681             NaN
       6307.9330             NaN
       6308.8978             NaN
       6309.8626             NaN
       6310.8274             NaN
       6311.7922             NaN
       6312.7570             NaN
       6313.7218       4.3423980
       6314.6866       4.3721449
       6315.6514       4.3205966
       6316.6162       4.1896488
       6317.5811       4.1554127
       6318.5459       4.0296825
       6319.5107       3.9303304
       6320.4755       4.0658674
       6321.4403       4.1185545
       6322.4051       4.0237583
       6323.3699       4.3445716
       6324.3347       4.3910863
       6325.2995       4.6175198
       6326.2644       4.4711795
       6327.2292       4.4157730
       6328.1940       4.5779020
       6329.1588       4.5566265
       6330.1236       4.6541088
       6331.0884       4.5697590
       6332.0532       4.3310727
       6333.0180       4.5465366
       6333.9828       4.5485092
       6334.9476       4.5661622
       6335.9125       4.5049914
       6336.8773       4.4984419
       6337.8421       4.3835543
       6338.8069       4.4168364
       6339.7717       4.4824586
       6340.7365       4.4764828
       6341.7013       4.4335266
       6342.6661       4.3866557
       6343.6309       4.3933403
       6344.5958       4.2093065
       6345.5606       4.2968621
       6346.5254       4.3517564
       6347.4902       4.4205965
       6348.4550       4.3571660
       6349.4198       4.1966898
       6350.3846       4.2780505
       6351.3494       4.2107484
       6352.3142       4.4445961
       6353.2790       4.5605644
       6354.2439       4.6307705
       6355.2087       5.0405416
       6356.1735       5.0375397
       6357.1383       5.0185680
       6358.1031       4.5466242
       6359.0679       4.4406209
       6360.0327       4.5622883
       6360.9975       4.3874628
       6361.9623       4.3849417
       6362.9272       4.3395234
       6363.8920       4.3437443
       6364.8568       4.3887478
       6365.8216       4.2153294
       6366.7864       4.4949847
       6367.7512       4.3366282
       6368.7160       4.1518721
       6369.6808       4.3773444
       6370.6456       4.4783022
       6371.6104       4.6658003
       6372.5753       4.4513013
       6373.5401       4.6720664
       6374.5049       4.6273208
       6375.4697       4.5612782
       6376.4345       4.4563605
       6377.3993       4.5201367
       6378.3641       4.5972820
       6379.3289       4.7857696
       6380.2937       4.6391689
       6381.2586       4.7951467
       6382.2234       4.7691504
       6383.1882       4.6719146
       6384.1530       4.4982635
       6385.1178       4.3540219
       6386.0826       4.3384554
       6387.0474       4.5223402
       6388.0122       4.4606384
       6388.9770       4.4988543
       6389.9418       4.5047362
       6390.9067       4.6691376
       6391.8715       4.7177725
       6392.8363       5.0019649
       6393.8011       4.9040933
       6394.7659       4.7075317
       6395.7307       4.5637488
       6396.6955       4.5230985
       6397.6603       4.4036806
       6398.6251       4.3134879
       6399.5899       4.3346026
       6400.5548       4.2584768
       6401.5196       4.3880796
       6402.4844       4.4980348
       6403.4492       4.5800526
       6404.4140       4.7267096
       6405.3788       4.6737517
       6406.3436       4.5383687
       6407.3084       4.4979657
       6408.2732       4.3284816
       6409.2381       4.3146195
       6410.2029       4.4242894
       6411.1677       4.3860831
       6412.1325       4.3962989
       6413.0973       4.4037609
       6414.0621       4.6623906
       6415.0269       4.9523125
       6415.9917       4.8108297
       6416.9565       4.6776493
       6417.9213       4.6936458
       6418.8862       4.6778510
       6419.8510       4.3839167
       6420.8158       4.3265199
       6421.7806       4.5010648
       6422.7454       4.4269757
       6423.7102       4.3724852
       6424.6750       4.3834880
       6425.6398       4.3453217
       6426.6046       4.1691180
       6427.5695       4.4110120
       6428.5343       4.5834305
       6429.4991       4.4838499
       6430.4639       4.5582219
       6431.4287       4.7691857
       6432.3935       4.6665180
       6433.3583       4.4446424
       6434.3231       4.3813354
       6435.2879       4.3211823
       6436.2527       4.2369864
       6437.2176       4.2555387
       6438.1824       4.2925452
       6439.1472       4.3839790
       6440.1120       4.5128466
       6441.0768       4.5153809
       6442.0416       4.4101541
       6443.0064       4.5974639
       6443.9712       4.6950370
       6444.9360       4.6872427
       6445.9009       4.7002613
       6446.8657       4.8175346
       6447.8305       4.7951250
       6448.7953       4.5734503
       6449.7601       4.5764860
       6450.7249       4.6890101
       6451.6897       4.6897534
       6452.6545       4.6834846
       6453.6193       4.4380874
       6454.5841       4.6260194
       6455.5490       4.5680912
       6456.5138       4.4509831
       6457.4786       4.4581561
       6458.4434       4.3482377
       6459.4082       4.3711426
       6460.3730       4.5764563
       6461.3378       4.5325660
       6462.3026       4.5961926
       6463.2674       4.4905609
       6464.2323       4.5868456
       6465.1971       4.4580598
       6466.1619       4.4709085
       6467.1267       4.5833345
       6468.0915       4.5836310
       6469.0563       4.5237508
       6470.0211       4.5823996
       6470.9859       4.6212102
       6471.9507       4.7266625
       6472.9155       4.6717251
       6473.8804       4.6302404
       6474.8452       4.5065513
       6475.8100       4.6426201
       6476.7748       4.4788215
       6477.7396       4.5033506
       6478.7044       4.5836751
       6479.6692       4.6111916
       6480.6340       4.5670309
       6481.5988       4.4944620
       6482.5637       4.4533666
       6483.5285       4.6189132
       6484.4933       4.4906808
       6485.4581       4.4164127
       6486.4229       4.3828009
       6487.3877       4.5461915
       6488.3525       4.4848231
       6489.3173       4.6066423
       6490.2821       4.7591287
       6491.2469       4.9251821
       6492.2118       4.5654715
       6493.1766       4.6554570
       6494.1414       4.4660201
       6495.1062       4.4435549
       6496.0710       4.2177014
       6497.0358       4.5194935
       6498.0006       4.4156832
       6498.9654       4.3680900
       6499.9302       4.1507011
       6500.8950       4.1723498
       6501.8599       4.2417794
       6502.8247       4.2146334
       6503.7895       4.1389192
       6504.7543       4.4252471
       6505.7191       4.4633748
       6506.6839       4.5316027
       6507.6487       4.3789156
       6508.6135       4.5055693
       6509.5783       4.7072818
       6510.5432       4.6461325
       6511.5080       4.6781094
       6512.4728       4.6907237
       6513.4376       4.5812411
       6514.4024       4.6617991
       6515.3672       4.5896409
       6516.3320       4.6347579
       6517.2968       4.6124419
       6518.2616       4.6320462
       6519.2264       4.7700861
       6520.1913       4.6410582
       6521.1561       4.7255818
       6522.1209       4.5697198
       6523.0857       4.5858213
       6524.0505       4.6049474
       6525.0153       4.5521075
       6525.9801       4.5772949
       6526.9449       4.3264442
       6527.9097       4.4942724
       6528.8746       4.6650372
       6529.8394       4.7594927
       6530.8042       4.6716247
       6531.7690       4.8947832
       6532.7338       4.9642280
       6533.6986       5.2156698
       6534.6634       5.0723286
       6535.6282       4.9224161
       6536.5930       4.8480823
       6537.5578       4.7104165
       6538.5227       4.6725013
       6539.4875       4.7444496
       6540.4523       4.7342395
       6541.4171       4.6005776
       6542.3819       4.5954058
       6543.3467       4.8722918
       6544.3115       4.9387370
       6545.2763       4.9216521
       6546.2411       4.8368234
       6547.2060       4.8396227
       6548.1708       4.8309224
       6549.1356       4.8052370
       6550.1004       4.6877597
       6551.0652       4.6763205
       6552.0300       4.7338857
       6552.9948       4.9200885
       6553.9596       5.1548733
       6554.9244       5.1670684
       6555.8892       5.0615424
       6556.8541       5.0483410
       6557.8189       4.9594482
       6558.7837       4.8963315
       6559.7485       4.6314145
       6560.7133       4.5726626
       6561.6781       4.5454849
       6562.6429       4.5142145
       6563.6077       4.6491896
       6564.5725       4.7849136
       6565.5374       5.0651515
       6566.5022       5.6235886
       6567.4670       6.0075003
       6568.4318       6.3631388
       6569.3966       6.3584257
       6570.3614       6.0672091
       6571.3262       5.6791862
       6572.2910       5.0834780
       6573.2558       4.7449667
       6574.2206       4.6324138
       6575.1855       4.6754518
       6576.1503       4.5531161
       6577.1151       4.1783880
       6578.0799       4.2371057
       6579.0447       4.2356852
       6580.0095       4.2848701
       6580.9743       4.2939434
       6581.9391       4.5062774
       6582.9039       4.4917007
       6583.8688       4.7348902
       6584.8336       4.9632986
       6585.7984       5.3106419
       6586.7632       5.3444495
       6587.7280       5.6577132
       6588.6928       5.9791623
       6589.6576       6.1701417
       6590.6224       6.1550289
       6591.5872       5.8398347
       6592.5520       5.5670749
       6593.5169       5.2170604
       6594.4817       4.9580349
       6595.4465       4.8207504
       6596.4113       4.6281043
       6597.3761       4.6155087
       6598.3409       4.6378525
       6599.3057       4.5207332
       6600.2705       4.5467855
       6601.2353       4.5786688
       6602.2002       4.6408250
       6603.1650       4.6881630
       6604.1298       4.6634700
       6605.0946       4.7024644
       6606.0594       4.7981158
       6607.0242       4.5857244
       6607.9890       4.5102420
       6608.9538       4.5089292
       6609.9186       4.5543586
       6610.8834       4.5532069
       6611.8483       4.5469032
       6612.8131       4.5082625
       6613.7779       4.6650580
       6614.7427       4.7077667
       6615.7075       4.8480626
       6616.6723       4.7609751
       6617.6371       4.6271442
       6618.6019       4.8204888
       6619.5667       4.8064961
       6620.5315       4.7298246
       6621.4964       4.7320111
       6622.4612       4.8479144
       6623.4260       4.7501876
       6624.3908       4.6870394
       6625.3556       4.6527396
       6626.3204       4.6783651
       6627.2852       4.8113378
       6628.2500       4.7948863
       6629.2148       4.5624032
       6630.1797       4.5648792
       6631.1445       4.7300836
       6632.1093       4.6731824
       6633.0741       4.5894441
       6634.0389       4.5551836
       6635.0037       4.4891938
       6635.9685       4.6210451
       6636.9333       4.5037658
       6637.8981       4.4109254
       6638.8629       4.4006037
       6639.8278       4.4902439
       6640.7926       4.4398843
       6641.7574       4.3223470
       6642.7222       4.4500666
       6643.6870       4.4350323
       6644.6518       4.5920143
       6645.6166       4.5979300
       6646.5814       4.7852437
       6647.5462       4.7955144
       6648.5111       4.5797522
       6649.4759       4.6096735
       6650.4407       4.6706333
       6651.4055       4.6044692
       6652.3703       4.5998051
       6653.3351       4.5603383
       6654.2999       4.5186446
       6655.2647       4.5499519
       6656.2295       4.4713295
       6657.1943       4.5963879
       6658.1592       4.5857969
       6659.1240       4.5802167
       6660.0888       4.6743538
       6661.0536       4.5706955
       6662.0184       4.5578117
       6662.9832       4.6130052
       6663.9480       4.6338414
       6664.9128       4.5569645
       6665.8776       4.3627354
       6666.8425       4.4255671
       6667.8073       4.4073066
       6668.7721       4.4201894
       6669.7369       4.4060549
       6670.7017       4.3552119
       6671.6665       4.5451252
       6672.6313       4.6902001
       6673.5961       4.5708284
       6674.5609       4.6398638
       6675.5257       4.5559305
       6676.4906       4.6042885
       6677.4554       4.6550391
       6678.4202       4.6295225
       6679.3850       4.5744394
       6680.3498       4.5523880
       6681.3146       4.6337516
       6682.2794       4.5284490
       6683.2442       4.5544171
       6684.2090       4.5658504
       6685.1739       4.4859980
       6686.1387       4.4965069
       6687.1035       4.5251017
       6688.0683       4.5049910
       6689.0331       4.5049468
       6689.9979       4.4612389
       6690.9627       4.3698808
       6691.9275       4.4965146
       6692.8923       4.5700724
       6693.8571       4.4730036
       6694.8220       4.5302064
       6695.7868       4.5426303
       6696.7516       4.5436997
       6697.7164       4.5205496
       6698.6812       4.4420515
       6699.6460       4.3415224
       6700.6108       4.3610298
       6701.5756       4.4246694
       6702.5404       4.2994291
       6703.5053       4.4038354
       6704.4701       4.4766543
       6705.4349       4.4294695
       6706.3997       4.4175415
       6707.3645       4.4336374
       6708.3293       4.4949494
       6709.2941       4.4571591
       6710.2589       4.3459216
       6711.2237       4.3773415
       6712.1885       4.4437164
       6713.1534       4.3968842
       6714.1182       4.5685555
       6715.0830       4.5720690
       6716.0478       4.4809498
       6717.0126       4.4184145
       6717.9774       4.5129566
       6718.9422       4.5145558
       6719.9070       4.4316999
       6720.8718       4.4901349
       6721.8366       4.6032506
       6722.8015       4.6555897
       6723.7663       4.7571291
       6724.7311       4.5275787
       6725.6959       4.5593494
       6726.6607       4.5387574
       6727.6255       4.3741955
       6728.5903       4.4627404
       6729.5551       4.5668098
       6730.5199       4.5077411
       6731.4848       4.5067639
       6732.4496       4.6914590
       6733.4144       4.7717145
       6734.3792       4.6804374
       6735.3440       4.7511007
       6736.3088       4.9221736
       6737.2736       4.8720816
       6738.2384       4.8997684
       6739.2032       4.7884240
       6740.1680       4.7796935
       6741.1329       4.8196970
       6742.0977       4.6657828
       6743.0625       4.5833022
       6744.0273       4.5895255
       6744.9921       4.4184628
       6745.9569       4.2778949
       6746.9217       4.3502474
       6747.8865       4.4150957
       6748.8513       4.3078252
       6749.8162       4.2054003
       6750.7810       4.2944302
       6751.7458       4.3575728
       6752.7106       4.3655555
       6753.6754       4.2807949
       6754.6402       4.2290553
       6755.6050       4.3340675
       6756.5698       4.3643584
       6757.5346       4.4011155
       6758.4994       4.3153199
       6759.4643       4.2232498
       6760.4291       4.3799127
       6761.3939       4.4465769
       6762.3587       4.4971106
       6763.3235       4.4968953
       6764.2883       4.5743387
       6765.2531       4.5519285
       6766.2179       4.7300047
       6767.1827       4.8226827
       6768.1476       4.5903521
       6769.1124       4.5064601
       6770.0772       4.5575662
       6771.0420       4.5406655
       6772.0068       4.4949537
       6772.9716       4.5284241
       6773.9364       4.4362405
       6774.9012       4.4925990
       6775.8660       4.5859468
       6776.8308       4.5143582
       6777.7957       4.4978659
       6778.7605       4.4279759
       6779.7253       4.4676226
       6780.6901       4.5736247
       6781.6549       4.6469187
       6782.6197       4.6859952
       6783.5845       4.6271728
       6784.5493       4.5813405
       6785.5141       4.4931671
       6786.4790       4.4792374
       6787.4438       4.3428852
       6788.4086       4.3204428
       6789.3734       4.3882603
       6790.3382       4.4853688
       6791.3030       4.3955742
       6792.2678       4.6301994
       6793.2326       4.6298147
       6794.1974       4.4794145
       6795.1622       4.6349420
       6796.1271       4.7082630
       6797.0919       4.8091104
       6798.0567       4.6725656
       6799.0215       4.6326806
       6799.9863       4.7478381
       6800.9511       4.6516911
       6801.9159       4.5038658
       6802.8807       4.6191635
       6803.8455       4.6292872
       6804.8104       4.6568611
       6805.7752       4.8897236
       6806.7400       4.7173145
       6807.7048       4.7159045
       6808.6696       4.6966427
       6809.6344       4.9294055
       6810.5992       5.0610786
       6811.5640       4.7766870
       6812.5288       4.7531277
       6813.4936       4.6378954
       6814.4585       4.6957960
       6815.4233       4.7496466
       6816.3881       4.5328999
       6817.3529       4.6432804
       6818.3177       4.8001569
       6819.2825       4.6443466
       6820.2473       4.5670841
       6821.2121       4.6168005
       6822.1769       4.7313581
       6823.1418       4.7373867
       6824.1066       4.5173952
       6825.0714       4.5057120
       6826.0362       4.5222253
       6827.0010       4.5795299
       6827.9658       4.5510484
       6828.9306       4.5007357
       6829.8954       4.7154985
       6830.8602       4.7159120
       6831.8250       4.6492822
       6832.7899       4.5915482
       6833.7547       4.6582677
       6834.7195       4.5721141
       6835.6843       4.5543052
       6836.6491       4.5232970
       6837.6139       4.4836624
       6838.5787       4.3670574
       6839.5435       4.0530457
       6840.5083       4.2023379
       6841.4731       4.1769873
       6842.4380       4.2399843
       6843.4028       4.2762656
       6844.3676       4.8608890
       6845.3324       5.2906117
       6846.2972       5.1064548
       6847.2620       4.7421148
       6848.2268       4.4730692
       6849.1916       4.6762684
       6850.1564       4.6972460
       6851.1213       4.7995335
       6852.0861       4.8527450
       6853.0509       4.8993441
       6854.0157       4.8360341
       6854.9805       4.8729722
       6855.9453       4.7942272
       6856.9101       4.6472970
       6857.8749       4.4504543
       6858.8397       4.4799914
       6859.8045       4.5469262
       6860.7694       4.6478614
       6861.7342       4.6951777
       6862.6990       4.7514315
       6863.6638       4.6549619
       6864.6286       4.5537171
       6865.5934       4.5608341
       6866.5582       4.5499402
       6867.5230       4.4061148
       6868.4878       4.4040269
       6869.4527       4.5297533
       6870.4175       4.6005828
       6871.3823       4.5766672
       6872.3471       4.5156512
       6873.3119       4.6154596
       6874.2767       4.6177916
       6875.2415       4.7392356
       6876.2063       4.8065473
       6877.1711       4.7902513
       6878.1359       5.0001783
       6879.1008       5.0650455
       6880.0656       5.1629129
       6881.0304       5.1319972
       6881.9952       4.9367201
       6882.9600       4.7841596
       6883.9248       4.6102417
       6884.8896       4.2509631
       6885.8544       4.4691238
       6886.8192       4.8159438
       6887.7841       4.5663690
       6888.7489       4.7745641
       6889.7137       4.8274432
       6890.6785       4.8790129
       6891.6433       5.0566099
       6892.6081       5.1857430
       6893.5729       5.0423515
       6894.5377       4.9657079
       6895.5025       4.9047757
       6896.4673       4.9363821
       6897.4322       4.7420060
       6898.3970       4.6529475
       6899.3618       4.7906596
       6900.3266       4.8479874
       6901.2914       4.8194515
       6902.2562       4.8899824
       6903.2210       4.8363692
       6904.1858       4.8698549
       6905.1506       4.8819769
       6906.1155       5.0077525
       6907.0803       5.0723748
       6908.0451       4.7978706
       6909.0099       4.6406481
       6909.9747       4.4470206
       6910.9395       4.5463956
       6911.9043       4.7863227
       6912.8691       4.7779695
       6913.8339       4.7348616
       6914.7987       5.2371798
       6915.7636       5.6128393
       6916.7284       5.5638546
       6917.6932       5.2088384
       6918.6580       5.0784314
       6919.6228       5.0083646
       6920.5876       4.9111597
       6921.5524       4.9286241
       6922.5172       4.7237222
       6923.4820       4.7403066
       6924.4469       4.7326168
       6925.4117       4.7035132
       6926.3765       4.6585241
       6927.3413       4.6600098
       6928.3061       4.7341902
       6929.2709       4.7112415
       6930.2357       4.7465529
       6931.2005       4.8831846
       6932.1653       4.9331606
       6933.1301       4.9833448
       6934.0950       4.9014000
       6935.0598       5.0319913
       6936.0246       4.8434507
       6936.9894       4.7819316
       6937.9542       4.5770194
       6938.9190       4.4970179
       6939.8838       4.5472856
       6940.8486       4.6968120
       6941.8134       4.9056880
       6942.7782       5.1484770
       6943.7431       5.2219205
       6944.7079       5.5436289
       6945.6727       5.5608625
       6946.6375       5.3326230
       6947.6023       5.2906932
       6948.5671       5.1372414
       6949.5319       5.0952169
       6950.4967       5.0682848
       6951.4615       4.9979069
       6952.4264       4.8773386
       6953.3912       4.8789044
       6954.3560       4.7950507
       6955.3208       4.9318202
       6956.2856       4.9596768
       6957.2504       4.8880017
       6958.2152       4.7487160
       6959.1800       4.7063119
       6960.1448       4.7239621
       6961.1096       4.8001889
       6962.0745       4.8107497
       6963.0393       4.6510342
       6964.0041       4.7612186
       6964.9689       4.8508600
       6965.9337       5.0266197
       6966.8985       4.8680591
       6967.8633       4.8627692
       6968.8281       4.8807655
       6969.7929       4.7363608
       6970.7578       4.7603224
       6971.7226       4.7808549
       6972.6874       4.9773331
       6973.6522       4.9368021
       6974.6170       4.7188529
       6975.5818       4.8902043
       6976.5466       5.0255987
       6977.5114       4.8922798
       6978.4762       5.0092966
       6979.4410       5.1297560
       6980.4059       5.0293481
       6981.3707       4.8042732
       6982.3355       4.7158484
       6983.3003       4.6074737
       6984.2651       4.6202755
       6985.2299       4.6583823
       6986.1947       4.7037466
       6987.1595       4.7118947
       6988.1243       4.7202949
       6989.0892       4.8143950
       6990.0540       4.8342754
       6991.0188       4.8198296
       6991.9836       4.7692251
       6992.9484       4.7568380
       6993.9132       4.7981865
       6994.8780       4.9131295
       6995.8428       4.8504516
       6996.8076       4.8091640
       6997.7724       4.8255228
       6998.7373       4.8463473
       6999.7021       4.8155022
       7000.6669       4.8021856
       7001.6317       4.8700210
       7002.5965       4.8183102
       7003.5613       4.8961697
       7004.5261       4.8243447
       7005.4909       4.7761720
       7006.4557       4.7830054
       7007.4206       4.8043865
       7008.3854       4.7408149
       7009.3502       4.7071969
       7010.3150       4.7102718
       7011.2798       4.8130298
       7012.2446       4.9489597
       7013.2094       4.9666470
       7014.1742       4.8692791
       7015.1390       4.8476952
       7016.1038       4.8824077
       7017.0687       4.8659265
       7018.0335       4.8762658
       7018.9983       4.7972300
       7019.9631       4.8604700
       7020.9279       4.7844203
       7021.8927       4.8519747
       7022.8575       4.8194147
       7023.8223       4.8569033
       7024.7871       4.9542052
       7025.7520       4.9523974
       7026.7168       4.9373478
       7027.6816       4.9426161
       7028.6464       4.8356200
       7029.6112       4.8591837
       7030.5760       4.7663414
       7031.5408       4.7780432
       7032.5056       4.9089244
       7033.4704       4.9124557
       7034.4352       4.7843578
       7035.4001       4.8192998
       7036.3649       4.8661408
       7037.3297       4.8735107
       7038.2945       4.8082351
       7039.2593       4.8159560
       7040.2241       4.8812031
       7041.1889       4.8050769
       7042.1537       4.7521894
       7043.1185       4.8331277
       7044.0834       4.9863975
       7045.0482       5.0221034
       7046.0130       5.1259441
       7046.9778       4.9827813
       7047.9426       5.0108414
       7048.9074       4.9631042
       7049.8722       5.0288330
       7050.8370       5.0643224
       7051.8018       5.1189423
       7052.7666       5.1580286
       7053.7315       5.1073137
       7054.6963       5.0016261
       7055.6611       5.0035356
       7056.6259       5.2075986
       7057.5907       5.1170324
       7058.5555       4.8094825
       7059.5203       4.5438198
       7060.4851       4.7343633
       7061.4499       4.6067608
       7062.4147       4.6085806
       7063.3796       4.6045328
       7064.3444       4.8284216
       7065.3092       4.5024561
       7066.2740       4.2767233
       7067.2388       4.4326115
       7068.2036       4.7000167
       7069.1684       4.5510351
       7070.1332       4.4206523
       7071.0980       4.2849411
       7072.0629       4.5913918
       7073.0277       4.5592018
       7073.9925       4.4564143
       7074.9573       4.8179413
       7075.9221       4.8633115
       7076.8869       4.4955115
       7077.8517       4.5925807
       7078.8165       4.7291337
       7079.7813       4.6430188
       7080.7461       4.6530833
       7081.7110       4.8041716
       7082.6758       4.6837097
       7083.6406       4.8035577
       7084.6054       4.8339844
       7085.5702       4.7997610
       7086.5350       4.8048368
       7087.4998       4.7324212
       7088.4646       4.6658590
       7089.4294       4.5402685
       7090.3943       4.6075001
       7091.3591       4.5839159
       7092.3239       4.3870686
       7093.2887       4.3037096
       7094.2535       4.2843033
       7095.2183       4.1860535
       7096.1831       4.4604814
       7097.1479       4.5261125
       7098.1127       4.5911877
       7099.0775       4.5266254
       7100.0424       4.5671760
       7101.0072       4.5122059
       7101.9720       4.3348936
       7102.9368       4.3144695
       7103.9016       4.5748901
       7104.8664       4.4897092
       7105.8312       4.5733156
       7106.7960       4.7495074
       7107.7608       4.4788107
       7108.7257       4.5175014
       7109.6905       4.5556365
       7110.6553       4.7978066
       7111.6201       4.5354736
       7112.5849       4.5941740
       7113.5497       4.5713074
       7114.5145       4.4964886
       7115.4793       4.5062959
       7116.4441       4.5905316
       7117.4089       4.5012612
       7118.3738       4.5688987
       7119.3386       4.5645870
       7120.3034       4.6137738
       7121.2682       4.6129909
       7122.2330       4.6977335
       7123.1978       4.8416590
       7124.1626       4.6471967
       7125.1274       4.6647415
       7126.0922       4.6039081
       7127.0571       4.7045915
       7128.0219       4.6521250
       7128.9867       4.6978976
       7129.9515       4.6582262
       7130.9163       4.6058389
       7131.8811       4.4653260
       7132.8459       4.5920056
       7133.8107       4.6623193
       7134.7755       4.5497995
       7135.7403       4.4751204
       7136.7052       4.4679148
       7137.6700       4.6735881
       7138.6348       4.7251045
       7139.5996       4.6791992
       7140.5644       4.7966334
       7141.5292       4.7251787
       7142.4940       4.8247575
       7143.4588       4.7934275
       7144.4236       4.8085191
       7145.3885       4.8914664
       7146.3533       4.8842067
       7147.3181       4.8312125
       7148.2829       4.8615102
       7149.2477       4.7658416
       7150.2125       4.8116695
       7151.1773       4.7795627
       7152.1421       4.5620175
       7153.1069       4.5261689
       7154.0717       4.6143224
       7155.0366       4.6079297
       7156.0014       4.4668065
       7156.9662       4.4829153
       7157.9310       4.4637763
       7158.8958       4.7300241
       7159.8606       4.7213080
       7160.8254       4.6907237
       7161.7902       4.6915134
       7162.7550       4.7852469
       7163.7198       5.0706919
       7164.6847       4.8351351
       7165.6495       4.6246627
       7166.6143       4.6660776
       7167.5791       4.7105634
       7168.5439       4.6972593
       7169.5087       4.6222464
       7170.4735       4.5771284
       7171.4383       4.5224812
       7172.4031       4.5097142
       7173.3680       4.6296962
       7174.3328       4.7617916
       7175.2976       4.8106651
       7176.2624       4.9803052
       7177.2272       4.8862639
       7178.1920       4.6756624
       7179.1568       4.3786747
       7180.1216       4.3673245
       7181.0864       4.5531854
       7182.0512       4.6808861
       7183.0161       4.9403563
       7183.9809       4.9732168
       7184.9457       4.7087778
       7185.9105       4.8105708
       7186.8753       5.0051943
       7187.8401       5.0998864
       7188.8049       5.0409002
       7189.7697       5.1509404
       7190.7345       5.0899249
       7191.6994       5.1555823
       7192.6642       4.7709601
       7193.6290       4.5445778
       7194.5938       4.7576904
       7195.5586       4.8405286
       7196.5234       4.7745637
       7197.4882       4.8677806
       7198.4530       4.9232445
       7199.4178       5.0691005
       7200.3826       5.2876460
       7201.3475       5.0876853
       7202.3123       5.0526228
       7203.2771       4.8623927
       7204.2419       4.8031741
       7205.2067       4.8088673
       7206.1715       4.7439442
       7207.1363       4.9074244
       7208.1011       4.9119682
       7209.0659       4.8076593
       7210.0308       4.9945457
       7210.9956       5.1670293
       7211.9604       5.1741935
       7212.9252       4.9750753
       7213.8900       4.9106503
       7214.8548       5.0135967
       7215.8196       4.8196428
       7216.7844       4.9410240
       7217.7492       4.6853258
       7218.7140       4.7987915
       7219.6789       4.9866009
       7220.6437       5.0108473
       7221.6085       5.0460721
       7222.5733       4.8751890
       7223.5381       4.9451515
       7224.5029       4.9974100
       7225.4677       4.9700362
       7226.4325       4.9383215
       7227.3973       5.0454129
       7228.3622       5.0102098
       7229.3270       5.0475618
       7230.2918       4.9037099
       7231.2566       4.9294803
       7232.2214       4.6632200
       7233.1862       4.5037939
       7234.1510       4.6765673
       7235.1158       4.5534935
       7236.0806       4.4197769
       7237.0454       5.6687051
       7238.0103       5.8116268
       7238.9751       5.6912608
       7239.9399       5.3183104
       7240.9047       5.2719692
       7241.8695       5.2039844
       7242.8343       5.1520846
       7243.7991       4.9329015
       7244.7639       5.0622625
       7245.7287       5.1365307
       7246.6936       5.6622593
       7247.6584       5.6259653
       7248.6232       5.4464476
       7249.5880       5.3556693
       7250.5528       5.1684730
       7251.5176       5.2736863
       7252.4824       5.2360893
       7253.4472       5.1829362
       7254.4120       5.2902375
       7255.3768       5.3072442
       7256.3417       5.2288908
       7257.3065       5.6444710
       7258.2713       5.3736356
       7259.2361       5.3415751
       7260.2009       5.2842633
       7261.1657       5.1497929
       7262.1305       5.4087515
       7263.0953       5.5051293
       7264.0601       5.2330373
       7265.0250       5.3995664
       7265.9898       5.2306508
       7266.9546       5.2243567
       7267.9194       5.1408962
       7268.8842       5.3562881
       7269.8490       5.4323655
       7270.8138       5.3160689
       7271.7786       5.4868533
       7272.7434       5.6049334
       7273.7082       5.6643339
       7274.6731       5.7224630
       7275.6379       5.4419198
       7276.6027       5.2619975
       7277.5675       5.1906297
       7278.5323       5.1913531
       7279.4971       5.1760422
       7280.4619       4.7983136
       7281.4267       4.1687339
       7282.3915       4.5060487
       7283.3563       5.1077779
       7284.3212       4.8472759
       7285.2860       5.5232994
       7286.2508       5.9540167
       7287.2156       6.3148554
       7288.1804       5.9508457
       7289.1452       5.4886377
       7290.1100       5.5010189
       7291.0748       5.3566201
       7292.0396       5.2971947
       7293.0045       5.1577757
       7293.9693       5.1200164
       7294.9341       5.0370698
       7295.8989       4.9840283
       7296.8637       5.0680188
       7297.8285       5.2635214
       7298.7933       5.4224576
       7299.7581       5.2198775
       7300.7229       5.6201285
       7301.6877       5.7891477
       7302.6526       5.5913014
       7303.6174       5.5811174
       7304.5822       5.5317082
       7305.5470       5.5160408
       7306.5118       5.5302503
       7307.4766       4.9855145
       7308.4414       4.8393673
       7309.4062       4.7962406
       7310.3710       5.4747713
       7311.3359       5.1010501
       7312.3007       5.5164512
       7313.2655       5.7668191
       7314.2303       6.5947951
       7315.1951       6.8003957
       7316.1599       6.1394015
       7317.1247       6.0769074
       7318.0895       5.7734495
       7319.0543       5.6935861
       7320.0191       5.6532123
       7320.9840       5.7351511
       7321.9488       5.6012642
       7322.9136       5.4663881
       7323.8784       5.6584128
       7324.8432       5.5242015
       7325.8080       5.4141287
       7326.7728       5.4884567
       7327.7376       5.2083781
       7328.7024       5.3539033
       7329.6673       5.5043448
       7330.6321       5.5727499
       7331.5969       5.5262700
       7332.5617       5.6992317
       7333.5265       6.0047442
       7334.4913       5.9851871
       7335.4561       5.8098108
       7336.4209       5.7760151
       7337.3857       5.7554967
       7338.3505       5.5829742
       7339.3154       5.2148838
       7340.2802       4.8886028
       7341.2450       5.2644238
       7342.2098       5.8565238
       7343.1746       5.8223778
       7344.1394       5.6759297
       7345.1042       5.9814592
       7346.0690       6.0443363
       7347.0338       6.0765514
       7347.9987       6.2080675
       7348.9635       5.9076813
       7349.9283       5.8026938
       7350.8931       5.5934492
       7351.8579       5.5000752
       7352.8227       5.3141931
       7353.7875       5.5911901
       7354.7523       5.6000913
       7355.7171       5.5056850
       7356.6819       5.4450102
       7357.6468       5.4683190
       7358.6116       5.3867622
       7359.5764       5.2843297
       7360.5412       5.3220096
       7361.5060       5.5275180
       7362.4708       5.4581527
       7363.4356       5.2183079
       7364.4004       5.1902628
       7365.3652       5.2796613
       7366.3301       5.4563497
       7367.2949       5.3150934
       7368.2597       5.2566920
       7369.2245       5.2456399
       7370.1893       5.4840821
       7371.1541       5.2759969
       7372.1189       5.5477925
       7373.0837       5.7090249
       7374.0485       5.6787838
       7375.0133       5.3895086
       7375.9782       5.5760827
       7376.9430       6.0734093
       7377.9078       5.9782807
       7378.8726       5.9989666
       7379.8374       6.0825464
       7380.8022       6.2466593
       7381.7670       6.1621765
       7382.7318       6.1671369
       7383.6966       6.1374379
       7384.6614       5.9823337
       7385.6263       5.6740580
       7386.5911       5.6289335
       7387.5559       5.6186020
       7388.5207       5.4878263
       7389.4855       5.4381491
       7390.4503       5.5028382
       7391.4151       5.4033479
       7392.3799       5.3310008
       7393.3447       5.4967749
       7394.3096       5.5492848
       7395.2744       5.4976043
       7396.2392       5.4025150
       7397.2040       5.5945421
       7398.1688       5.7047109
       7399.1336       5.6916180
       7400.0984       5.7085037
       7401.0632       5.6838935
       7402.0280       5.8303002
       7402.9928       5.8505332
       7403.9577       5.8565542
       7404.9225       5.7278664
       7405.8873       5.7262484
       7406.8521       5.7505840
       7407.8169       5.8613418
       7408.7817       6.0828819
       7409.7465       6.0054621
       7410.7113       6.1761131
       7411.6761       5.8457503
       7412.6410       5.8256217
       7413.6058       5.7859205
       7414.5706       5.6073079
       7415.5354       5.7659367
       7416.5002       5.8379084
       7417.4650       5.7368598
       7418.4298       5.8225677
       7419.3946       6.0916737
       7420.3594       6.1028437
       7421.3242       6.1300100
       7422.2891       5.9929948
       7423.2539       5.9541189
       7424.2187       6.0070287
       7425.1835       5.8967649
       7426.1483       5.8131189
       7427.1131       5.7987113
       7428.0779       5.9632094
       7429.0427       5.8240831
       7430.0075       5.9358830
       7430.9724       5.8697787
       7431.9372       5.9112521
       7432.9020       6.0525408
       7433.8668       5.8761009
       7434.8316       5.8170753
       7435.7964       5.7131269
       7436.7612       5.9171624
       7437.7260       6.0370550
       7438.6908       5.8480714
       7439.6556       6.1052821
       7440.6205       6.0578804
       7441.5853       5.9737996
       7442.5501       5.9815879
       7443.5149       5.8592028
       7444.4797       5.8364291
       7445.4445       5.7562484
       7446.4093       5.8128958
       7447.3741       5.8955267
       7448.3389       5.8028220
       7449.3038       5.8673644
       7450.2686       6.1508536
       7451.2334       6.0415988
       7452.1982       6.1612125
       7453.1630       5.9988762
       7454.1278       6.2009045
       7455.0926       6.1949317
       7456.0574       6.1364222
       7457.0222       6.0766037
       7457.9870       6.1358108
       7458.9519       6.0831130
       7459.9167       5.9654817
       7460.8815       6.0562327
       7461.8463       6.0765459
       7462.8111       6.1757457
       7463.7759       5.9685503
       7464.7407       6.0714284
       7465.7055       6.0749602
       7466.6703       6.0783308
       7467.6352       6.2400897
       7468.6000       5.9700730
       7469.5648       6.1554670
       7470.5296       6.0960852
       7471.4944       6.1698913
       7472.4592       6.1244042
       7473.4240       6.2443189
       7474.3888       6.1102936
       7475.3536       6.0651381
       7476.3184       6.1176234
       7477.2833       6.2054457
       7478.2481       6.1521893
       7479.2129       6.1373597
       7480.1777       6.1697723
       7481.1425       6.2494410
       7482.1073       6.2025380
       7483.0721       6.0270036
       7484.0369       6.0737373
       7485.0017       5.9065721
       7485.9666       6.0889334
       7486.9314       6.1495807
       7487.8962       6.4324941
       7488.8610       6.3794288
       7489.8258       6.1708054
       7490.7906       6.1277964
       7491.7554       6.0880364
       7492.7202       6.1874450
       7493.6850       6.3210966
       7494.6498       6.0665609
       7495.6147       6.0977486
       7496.5795       6.2246047
       7497.5443       6.2042311
       7498.5091       6.2723352
       7499.4739       6.2417284
       7500.4387       6.0259391
       7501.4035       6.1730888
       7502.3683       6.0024932
       7503.3331       6.0337051
       7504.2979       6.1147148
       7505.2628       6.2688841
       7506.2276       6.2720331
       7507.1924       6.3918464
       7508.1572       6.4277163
       7509.1220       6.4397848
       7510.0868       6.4938696
       7511.0516       6.2153670
       7512.0164       6.2419666
       7512.9812       6.4436095
       7513.9461       6.3181516
       7514.9109       6.1511450
       7515.8757       6.2997336
       7516.8405       6.4174495
       7517.8053       6.4604512
       7518.7701       6.2906122
       7519.7349       6.4387688
       7520.6997       6.5589906
       7521.6645       6.4418828
       7522.6293       6.3005488
       7523.5942       6.3091080
       7524.5590       6.5363172
       7525.5238       6.3869770
       7526.4886       6.5091274
       7527.4534       6.5590013
       7528.4182       6.4892550
       7529.3830       6.5075332
       7530.3478       6.5354543
       7531.3126       6.3923480
       7532.2775       6.3995065
       7533.2423       6.6706598
       7534.2071       6.4215896
       7535.1719       6.3599993
       7536.1367       6.5688529
       7537.1015       6.6734285
       7538.0663       6.7323230
       7539.0311       6.5999297
       7539.9959       6.7011852
       7540.9607       6.7267577
       7541.9256       6.7954082
       7542.8904       6.5739330
       7543.8552       6.6956792
       7544.8200       6.5751052
       7545.7848       6.6581509
       7546.7496       6.7712412
       7547.7144       6.6971422
       7548.6792       6.8919253
       7549.6440       6.6863608
       7550.6089       6.5533428
       7551.5737       6.7633141
       7552.5385       6.7191161
       7553.5033       6.7320125
       7554.4681       6.5961713
       7555.4329       6.8090442
       7556.3977       6.8830561
       7557.3625       7.1165139
       7558.3273       6.9851313
       7559.2921       6.8387421
       7560.2570       6.8637684
       7561.2218       6.6509794
       7562.1866       6.5944973
       7563.1514       6.9272727
       7564.1162       6.6605970
       7565.0810       6.6978489
       7566.0458       6.6076772
       7567.0106       6.6503314
       7567.9754       6.8072338
       7568.9403       6.9532431
       7569.9051       6.6164332
       7570.8699       6.8959700
       7571.8347       6.7593548
       7572.7995       6.8854444
       7573.7643       6.6492811
       7574.7291       6.6747885
       7575.6939       6.6649147
       7576.6587       6.7848087
       7577.6235       6.7280204
       7578.5884       6.7298924
       7579.5532       6.6606034
       7580.5180       6.7186973
       7581.4828       6.6748128
       7582.4476       6.7684637
       7583.4124       6.6415329
       7584.3772       6.6145257
       7585.3420       6.6593216
       7586.3068       6.5014536
       7587.2717       6.7007262
       7588.2365       6.5670799
       7589.2013       6.4437752
       7590.1661       6.5127974
       7591.1309       6.6500298
       7592.0957       6.5559186
       7593.0605       6.5677735
       7594.0253       6.7332759
       7594.9901       6.5741445
       7595.9549       6.3818598
       7596.9198       6.5236598
       7597.8846       6.3216732
       7598.8494       6.3794884
       7599.8142       6.4023377
       7600.7790       6.4225853
       7601.7438       6.4195604
       7602.7086       6.4710207
       7603.6734       6.3319472
       7604.6382       6.4268748
       7605.6030       6.1933631
       7606.5679       6.3966596
       7607.5327       6.4284136
       7608.4975       6.5761847
       7609.4623       6.5567915
       7610.4271       6.5549777
       7611.3919       6.6345696
       7612.3567       6.6151454
       7613.3215       6.4772914
       7614.2863       6.3948259
       7615.2512       6.5976886
       7616.2160       6.3734459
       7617.1808       6.4099671
       7618.1456       6.1926362
       7619.1104       6.1982137
       7620.0752       6.0858247
       7621.0400       6.0511188
       7622.0048       5.6465773
       7622.9696       6.0327415
       7623.9344       6.1070872
       7624.8993       6.0612973
       7625.8641       6.3691731
       7626.8289       5.8586056
       7627.7937       5.8021028
       7628.7585       5.8331124
       7629.7233       6.3388080
       7630.6881       5.8493096
       7631.6529       6.6362734
       7632.6177       6.6593178
       7633.5826       6.1754090
       7634.5474       5.3259621
       7635.5122       5.4445963
       7636.4770       5.2620864
       7637.4418       5.3630219
       7638.4066       5.5855975
       7639.3714       5.6208500
       7640.3362       6.6880271
       7641.3010       6.2982636
       7642.2658       6.0987394
       7643.2307       6.3991613
       7644.1955       6.5157894
       7645.1603       5.9429486
       7646.1251       5.5074683
       7647.0899       5.5111619
       7648.0547       5.6232591
       7649.0195       5.4707064
       7649.9843       5.6147022
       7650.9491       5.8157079
       7651.9140       5.9095126
       7652.8788       5.4023049
       7653.8436       5.2347054
       7654.8084       4.8065997
       7655.7732       4.4915781
       7656.7380       4.6686404
       7657.7028       4.7703763
       7658.6676       5.1941017
       7659.6324       5.4499817
       7660.5972       5.7000739
       7661.5621       5.4263606
       7662.5269       5.4275863
       7663.4917       5.1062020
       7664.4565       4.6479022
       7665.4213       4.6902276
       7666.3861       4.8108740
       7667.3509       4.8801286
       7668.3157       4.8448428
       7669.2805       5.4032189
       7670.2454       5.6031136
       7671.2102       5.6220087
       7672.1750       5.5703767
       7673.1398       5.6580895
       7674.1046       5.3716464
       7675.0694       5.3791206
       7676.0342       5.0263817
       7676.9990       3.7128975
       7677.9638       4.1558773
       7678.9286       4.6162702
       7679.8935       5.2393085
       7680.8583       5.8133276
       7681.8231       6.4071161
       7682.7879       7.3875963
       7683.7527       6.5934134
       7684.7175       5.9186305
       7685.6823       5.8311313
       7686.6471       5.7578815
       7687.6119       5.8134102
       7688.5768       5.8221946
       7689.5416       6.0817752
       7690.5064       5.6033427
       7691.4712       5.6681255
       7692.4360       5.9654347
       7693.4008       6.1661978
       7694.3656       6.5337324
       7695.3304       6.2731292
       7696.2952       6.1918153
       7697.2600       6.1464496
       7698.2249       6.1074049
       7699.1897       5.5734969
       7700.1545       5.6260903
       7701.1193       5.8453849
       7702.0841       6.2970892
       7703.0489       6.4088031
       7704.0137       6.7296294
       7704.9785       6.6453729
       7705.9433       6.4870120
       7706.9082       6.3231515
       7707.8730       6.0780273
       7708.8378       5.8523954
       7709.8026       5.7241410
       7710.7674       5.8056702
       7711.7322       5.7804059
       7712.6970       5.4584854
       7713.6618       5.2514383
       7714.6266       5.7874187
       7715.5914       5.7789815
       7716.5563       5.5618871
       7717.5211       6.3508879
       7718.4859       6.5079003
       7719.4507       6.7388289
       7720.4155       5.9998976
       7721.3803       5.6718849
       7722.3451       5.5636054
       7723.3099       5.2969224
       7724.2747       4.9808559
       7725.2395       5.3532092
       7726.2044       5.6777553
       7727.1692       6.0322632
       7728.1340       5.3546100
       7729.0988       4.9990383
       7730.0636       6.0011156
       7731.0284       5.3417827
       7731.9932       5.7556924
       7732.9580       5.3805906
       7733.9228       6.1311346
       7734.8877       6.9803388
       7735.8525       6.0533580
       7736.8173       6.3480027
       7737.7821       6.4501349
       7738.7469       6.8098393
       7739.7117       6.2258713
       7740.6765       6.4355925
       7741.6413       6.2185468
       7742.6061       6.0587748
       7743.5709       6.0088870
       7744.5358       5.1311496
       7745.5006       5.3064086
       7746.4654       5.4333806
       7747.4302       5.4039145
       7748.3950       5.4018528
       7749.3598       6.0421520
       7750.3246       6.2249506
       7751.2894       5.6102534
       7752.2542       5.8325491
       7753.2191       6.2979600
       7754.1839       6.2738126
       7755.1487       5.9490310
       7756.1135       6.1104807
       7757.0783       6.1310425
       7758.0431       5.8931171
       7759.0079       4.7186255
       7759.9727       4.6385221
       7760.9375       5.6806676
       7761.9023       6.3168912
       7762.8672       5.6993719
       7763.8320       6.9467263
       7764.7968       7.9017191
       7765.7616       6.6791220
       7766.7264       6.0802179
       7767.6912       5.9917541
       7768.6560       6.2104283
       7769.6208       6.2329541
       7770.5856       6.2370495
       7771.5505       6.6584828
       7772.5153       6.5121388
       7773.4801       6.4515758
       7774.4449       6.2444072
       7775.4097       6.2004627
       7776.3745       5.7783842
       7777.3393       5.3888357
       7778.3041       5.6950054
       7779.2689       5.4047011
       7780.2337       4.7181638
       7781.1986       4.7581676
       7782.1634       5.4001538
       7783.1282       5.7807627
       7784.0930       6.2577899
       7785.0578       6.4468437
       7786.0226       7.3963225
       7786.9874       6.8481251
       7787.9522       6.9271826
       7788.9170       6.8552958
       7789.8819       6.8537780
       7790.8467       6.5783153
       7791.8115       6.3502537
       7792.7763       5.4798235
       7793.7411       4.1688389
       7794.7059       5.5424476
       7795.6707       5.4051463
       7796.6355       6.1967472
       7797.6003       6.3411496
       7798.5651       6.1494315
       7799.5300       6.9046330
       7800.4948       6.9173423
       7801.4596       6.1950239
       7802.4244       6.6174481
       7803.3892       6.7408019
       7804.3540       6.5654866
       7805.3188       6.4583775
       7806.2836       6.9330998
       7807.2484       7.1152141
       7808.2133       6.5899612
       7809.1781       6.9753790
       7810.1429       6.9788230
       7811.1077       7.0530645
       7812.0725       6.9541310
       7813.0373       6.7988063
       7814.0021       7.1216400
       7814.9669       6.4660550
       7815.9317       6.5897977
       7816.8965       6.4340839
       7817.8614       6.5798365
       7818.8262       6.3737052
       7819.7910       6.3425591
       7820.7558       6.4236997
       7821.7206       6.6326009
       7822.6854       6.9132236
       7823.6502       6.4780331
       7824.6150       6.7576572
       7825.5798       6.4914453
       7826.5446       6.1643460
       7827.5095       6.3266566
       7828.4743       6.8170213
       7829.4391       6.2134787
       7830.4039       6.0166263
       7831.3687       5.9102188
       7832.3335       5.5187990
       7833.2983       5.6026837
       7834.2631       5.6725011
       7835.2279       6.0564867
       7836.1928       5.6541726
       7837.1576       6.6959376
       7838.1224       7.3674981
       7839.0872       7.1470818
       7840.0520       7.1710147
       7841.0168       7.3009620
       7841.9816       6.6657335
       7842.9464       6.6609073
       7843.9112       6.4812372
       7844.8760       6.4702274
       7845.8409       6.0876257
       7846.8057       6.2793866
       7847.7705       6.3063839
       7848.7353       6.2686993
       7849.7001       6.4990203
       7850.6649       6.2250820
       7851.6297       6.4314363
       7852.5945       6.4122043
       7853.5593       6.3023746
       7854.5242       6.1421585
       7855.4890       6.0125580
       7856.4538       6.4152968
       7857.4186       6.3108203
       7858.3834       6.5797513
       7859.3482       6.4990906
       7860.3130       6.5548506
       7861.2778       6.5709736
       7862.2426       6.5824630
       7863.2074       6.5777524
       7864.1723       6.4968207
       7865.1371       6.0919994
       7866.1019       6.5308048
       7867.0667       6.3465616
       7868.0315       6.5761174
       7868.9963       6.6892887
       7869.9611       7.1855013
       7870.9259       7.2806495
       7871.8907       6.6654671
       7872.8556       7.2186750
       7873.8204       6.8500410
       7874.7852       6.7514497
       7875.7500       6.6435582
       7876.7148       6.5158659
       7877.6796       6.3473110
       7878.6444       6.5668666
       7879.6092       6.4008130
       7880.5740       6.8468241
       7881.5388       6.6389444
       7882.5037       7.3088592
       7883.4685       6.7323175
       7884.4333       6.7158933
       7885.3981       6.7680819
       7886.3629       7.0038372
       7887.3277       7.2007202
       7888.2925       7.1210331
       7889.2573       6.9291986
       7890.2221       6.9061288
       7891.1870       6.7344831
       7892.1518       6.6082798
       7893.1166       6.4315875
       7894.0814       6.6772796
       7895.0462       6.8300856
       7896.0110       6.5883846
       7896.9758       6.7387841
       7897.9406       6.5235881
       7898.9054       6.5775077
       7899.8702       6.5919657
       7900.8351       6.6751707
       7901.7999       6.7974181
       7902.7647       6.6551070
       7903.7295       6.6672560
       7904.6943       6.6565761
       7905.6591       6.7861216
       7906.6239       6.5768134
       7907.5887       6.6345514
       7908.5535       6.5915930
       7909.5184       6.7501893
       7910.4832       6.5988559
       7911.4480       6.5933220
       7912.4128       6.2811958
       7913.3776       6.3215641
       7914.3424       6.3910294
       7915.3072       6.2869906
       7916.2720       6.8254650
       7917.2368       6.7362198
       7918.2016       6.4565756
       7919.1665       6.5895576
       7920.1313       7.0774285
       7921.0961       7.3949012
       7922.0609       6.9394451
       7923.0257       6.6982688
       7923.9905       6.8730321
       7924.9553       6.5557914
       7925.9201       6.8315130
       7926.8849       6.4654289
       7927.8498       6.8612186
       7928.8146       6.9861284
       7929.7794       7.4699126
       7930.7442       7.2651081
       7931.7090       7.1131308
       7932.6738       6.7937815
       7933.6386       7.1119145
       7934.6034       6.8817535
       7935.5682       6.9481298
       7936.5330       7.0175970
       7937.4979       6.7162779
       7938.4627       6.4257325
       7939.4275       6.4966191
       7940.3923       7.0941918
       7941.3571       6.5978029
       7942.3219       6.7677652
       7943.2867       7.1460849
       7944.2515       7.2210743
       7945.2163       7.5288827
       7946.1811       7.0544874
       7947.1460       7.1923494
       7948.1108       6.9839768
       7949.0756       6.9085062
       7950.0404       6.9778289
       7951.0052       7.4377097
       7951.9700       7.0938323
       7952.9348       6.9504569
       7953.8996       7.0417763
       7954.8644       6.1809300
       7955.8293       6.0971193
       7956.7941       6.7032429
       7957.7589       6.4954622
       7958.7237       7.6291950
       7959.6885       7.1426370
       7960.6533       8.9571615
       7961.6181       7.8018548
       7962.5829       7.4965646
       7963.5477       7.8275742
       7964.5125       7.5147137
       7965.4774       7.0911473
       7966.4422       7.0903885
       7967.4070       6.8282370
       7968.3718       7.2135936
       7969.3366       7.2672690
       7970.3014       6.6360203
       7971.2662       7.1740164
       7972.2310       7.0345785
       7973.1958       6.7841973
       7974.1607       7.0466773
       7975.1255       7.3651848
       7976.0903       7.4337920
       7977.0551       7.2665058
       7978.0199       7.2495078
       7978.9847       7.0326796
       7979.9495       7.2027429
       7980.9143       7.2184092
       7981.8791       7.0743167
       7982.8439       7.0883236
       7983.8088       7.1313947
       7984.7736       6.9169668
       7985.7384       6.7643377
       7986.7032       7.0409949
       7987.6680       6.6599770
       7988.6328       6.7882715
       7989.5976       6.6811166
       7990.5624       6.8090284
       7991.5272       6.6980542
       7992.4921       6.9211324
       7993.4569       7.0422401
       7994.4217       6.8576385
       7995.3865       6.9021499
       7996.3513       6.9250418
       7997.3161       6.9670453
       7998.2809       7.1847583
       7999.2457       7.1185717
       8000.2105       6.8540991
       8001.1753       7.3271514
       8002.1402       6.9436864
       8003.1050       7.2375099
       8004.0698       7.4746081
       8005.0346       6.9748353
       8005.9994       7.2138182
       8006.9642       6.9250356
       8007.9290       7.3674845
       8008.8938       7.0087877
       8009.8586       7.2538872
       8010.8235       6.6951592
       8011.7883       6.5686478
       8012.7531       5.5800015
       8013.7179       6.1536427
       8014.6827       7.1864116
       8015.6475       6.5499970
       8016.6123       6.9343917
       8017.5771       9.8664158
       8018.5419       7.1055179
       8019.5067       7.2968773
       8020.4716       7.4898449
       8021.4364       7.7738232
       8022.4012       7.2694571
       8023.3660       7.0875345
       8024.3308       7.5686158
       8025.2956       8.9327699
       8026.2604       7.9022538
       8027.2252       7.8705618
       8028.1900       7.2215868
       8029.1549       7.3144945
       8030.1197       7.3523592
       8031.0845       7.0213751
       8032.0493       7.4676204
       8033.0141       7.0322772
       8033.9789       7.1181051
       8034.9437       7.1999402
       8035.9085       6.8740857
       8036.8733       7.2015911
       8037.8381       6.8446380
       8038.8030       6.7980413
       8039.7678       6.9646032
       8040.7326       6.9415976
       8041.6974       6.7691383
       8042.6622       6.8450328
       8043.6270       6.7427010
       8044.5918       6.7227185
       8045.5566       7.0307805
       8046.5214       7.1901488
       8047.4862       6.9090518
       8048.4511       7.2039406
       8049.4159       7.2654823
       8050.3807       7.0527842
       8051.3455       7.2365422
       8052.3103       7.0585202
       8053.2751       7.1052234
       8054.2399       6.8431530
       8055.2047       7.1722188
       8056.1695       6.8117485
       8057.1344       6.9733658
       8058.0992       6.6338687
       8059.0640       6.4739612
       8060.0288       6.9570775
       8060.9936       7.0293777
       8061.9584       6.6813013
       8062.9232       7.2055697
       8063.8880       7.2870397
       8064.8528       6.9359272
       8065.8176       7.0490949
       8066.7825       7.1199531
       8067.7473       6.8672580
       8068.7121       6.9377333
       8069.6769       6.9158088
       8070.6417       6.9985069
       8071.6065       6.6073351
       8072.5713       6.8918605
       8073.5361       6.6708208
       8074.5009       6.5502617
       8075.4658       6.7582313
       8076.4306       6.4103597
       8077.3954       5.8149987
       8078.3602       5.8524761
       8079.3250       5.5726137
       8080.2898       6.2291541
       8081.2546       6.5259782
       8082.2194       5.9208247
       8083.1842       7.6225940
       8084.1490       6.8897361
       8085.1139       7.3717608
       8086.0787       7.0258921
       8087.0435       6.7500267
       8088.0083       6.4921251
       8088.9731       6.6486012
       8089.9379       6.3054326
       8090.9027       6.6085001
       8091.8675       6.6028237
       8092.8323       6.6686333
       8093.7972       6.6289151
       8094.7620       6.5136097
       8095.7268       5.7555373
       8096.6916       6.8688426
       8097.6564       6.5917464
       8098.6212       6.9382675
       8099.5860       6.9159864
       8100.5508       7.1648849
       8101.5156       7.2650042
       8102.4804       7.2008183
       8103.4453       7.8250091
       8104.4101       6.9615195
       8105.3749       7.0657617
       8106.3397       7.2322846
       8107.3045       6.8738669
       8108.2693       6.9473950
       8109.2341       7.0905424
       8110.1989       7.1320389
       8111.1637       6.4098922
       8112.1286       6.7435843
       8113.0934       6.7810556
       8114.0582       6.9812811
       8115.0230       8.1510325
       8115.9878       9.3224913
       8116.9526       8.9523421
       8117.9174       9.5069897
       8118.8822       8.5271261
       8119.8470       8.5922218
       8120.8118       7.3102777
       8121.7767       7.4464112
       8122.7415       6.8025008
       8123.7063       6.8949940
       8124.6711       7.1851313
       8125.6359       6.7357572
       8126.6007       6.7239283
       8127.5655       6.8749089
       8128.5303       6.8224245
       8129.4951       6.4694247
       8130.4600       7.1074969
       8131.4248       6.8227187
       8132.3896       6.7420968
       8133.3544       5.6214595
       8134.3192       5.6943541
       8135.2840       5.9740635
       8136.2488       5.8424717
       8137.2136       5.7830666
       8138.1784       5.1136377
       8139.1432       6.3686937
       8140.1081       7.7054675
       8141.0729       7.8667874
       8142.0377       8.8032861
       8143.0025       8.2956265
       8143.9673       7.2306065
       8144.9321       6.4648150
       8145.8969       5.8881745
       8146.8617       6.3013271
       8147.8265       6.9061345
       8148.7914       6.8443059
       8149.7562       7.3167866
       8150.7210       7.0953570
       8151.6858       7.1105078
       8152.6506       7.2620602
       8153.6154       7.0708360
       8154.5802       6.3859141
       8155.5450       8.3129586
       8156.5098       7.5510510
       8157.4746       7.0503095
       8158.4395       6.6772464
       8159.4043       6.4553436
       8160.3691       6.3486123
       8161.3339       6.6646755
       8162.2987       6.8273914
       8163.2635       7.2248852
       8164.2283       6.7414296
       8165.1931       7.1360252
       8166.1579       6.4709735
       8167.1227       6.6583832
       8168.0876       6.6860664
       8169.0524       6.8018163
       8170.0172       6.6347994
       8170.9820       6.5013649
       8171.9468       6.3138498
       8172.9116       6.3274622
       8173.8764       6.1402902
       8174.8412       6.3637777
       8175.8060       6.2786088
       8176.7709       5.9305561
       8177.7357       6.2472468
       8178.7005       6.2380559
       8179.6653       6.2302549
       8180.6301       6.1352104
       8181.5949       6.3979287
       8182.5597       5.8049581
       8183.5245       5.9069830
       8184.4893       6.2566141
       8185.4541       6.0105652
       8186.4190       6.2636797
       8187.3838       6.2831037
       8188.3486       5.6993239
       8189.3134       6.2320915
       8190.2782       4.7231704
       8191.2430       3.9395738
       8192.2078       6.0326266
       8193.1726       4.8848235
       8194.1374       5.2949898
       8195.1023       5.6799763
       8196.0671       8.2218897
       8197.0319       8.0664246
       8197.9967       6.7264286
       8198.9615       6.7830542
       8199.9263       6.0368495
       8200.8911       5.8581971
       8201.8559       5.5855034
       8202.8207       5.6877917
       8203.7855       6.8420001
       8204.7504       6.7109703
       8205.7152       6.1234930
       8206.6800       6.1148005
       8207.6448       6.6231843
       8208.6096       6.4647478
       8209.5744       6.0307225
       8210.5392       6.0923097
       8211.5040       6.3106381
       8212.4688       6.0322720
       8213.4337       6.1080185
       8214.3985       5.7258530
       8215.3633       5.4025872
       8216.3281       5.7585144
       8217.2929       6.4544759
       8218.2577       5.9227750
       8219.2225       6.7116704
       8220.1873       6.6337321
       8221.1521       6.9817363
       8222.1169       6.8370890
       8223.0818       6.5839080
       8224.0466       6.0195642
       8225.0114       5.9176644
       8225.9762       6.0158044
       8226.9410       6.0911485
       8227.9058       5.8820656
       8228.8706       5.5221381
       8229.8354       5.5967007
       8230.8002       5.9910882
       8231.7651       6.5036451
       8232.7299       6.1738404
       8233.6947       6.6845025
       8234.6595       6.2548910
       8235.6243       6.6816940
       8236.5891       6.2868536
       8237.5539       6.4394674
       8238.5187       6.2207890
       8239.4835       6.0420692
       8240.4483       6.4893957
       8241.4132       6.5014335
       8242.3780       6.2348920
       8243.3428       6.3443298
       8244.3076       5.7396566
       8245.2724       5.8406801
       8246.2372       5.5572219
       8247.2020       4.6789622
       8248.1668       5.7475390
       8249.1316       5.7456020
       8250.0965       5.9033594
       8251.0613       7.2005890
       8252.0261       7.0457216
       8252.9909       5.3733229
       8253.9557       6.3852399
       8254.9205       6.0088113
       8255.8853       5.8052894
       8256.8501       5.5494198
       8257.8149       5.7464290
       8258.7797       5.7741362
       8259.7446       5.6772003
       8260.7094       5.8260906
       8261.6742       5.8435209
       8262.6390       5.6597949
       8263.6038       5.1012188
       8264.5686       5.3450484
       8265.5334       5.5280196
       8266.4982       5.7058051
       8267.4630       6.1006412
       8268.4278       5.8425786
       8269.3927       5.8100000
       8270.3575       6.6440930
       8271.3223       5.9529951
       8272.2871       5.6752017
       8273.2519       5.9070928
       8274.2167       5.9071936
       8275.1815       5.8639373
       8276.1463       5.5269776
       8277.1111       6.1153012
       8278.0760       5.6287661
       8279.0408       5.3570051
       8280.0056       4.2775256
       8280.9704       4.1836757
       8281.9352       4.7645837
       8282.9000       5.3537793
       8283.8648       5.2593373
       8284.8296       6.6656747
       8285.7944       7.5900407
       8286.7592       6.8704324
       8287.7241       5.5330644
       8288.6889       6.0366901
       8289.6537       5.3338026
       8290.6185       5.4362029
       8291.5833       5.1075007
       8292.5481       5.3448832
       8293.5129       5.1261673
       8294.4777       4.9840972
       8295.4425       4.9454035
       8296.4074       4.6813423
       8297.3722       4.9488098
       8298.3370       5.1347582
       8299.3018       4.7721304
       8300.2666       4.8476145
       8301.2314       4.9003692
       8302.1962       5.3818620
       8303.1610       5.2475899
       8304.1258       4.8437884
       8305.0906       4.3633770
       8306.0555       4.9659592
       8307.0203       5.8393573
       8307.9851       4.8524671
       8308.9499       4.8893101
       8309.9147       5.5693807
       8310.8795       5.8678423
       8311.8443       5.6749000
       8312.8091       5.4087422
       8313.7739       5.3279415
       8314.7388       5.4372638
       8315.7036       5.3877436
       8316.6684       4.9903930
       8317.6332       5.2517507
       8318.5980       4.1912304
       8319.5628       5.9226145
       8320.5276       5.9753591
       8321.4924       6.0137640
       8322.4572       4.9148491
       8323.4220       6.0835173
       8324.3869       8.0070901
       8325.3517       6.4259542
       8326.3165       5.4197425
       8327.2813       4.9769022
       8328.2461       5.2769344
       8329.2109       5.1056966
       8330.1757       5.3656470
       8331.1405       5.4777584
       8332.1053       5.3273148
       8333.0702       4.4133682
       8334.0350       4.1669684
       8334.9998       4.2811856
       8335.9646       4.7667398
       8336.9294       5.2355515
       8337.8942       5.2521252
       8338.8590       6.7904529
       8339.8238       5.9336070
       8340.7886       5.2565831
       8341.7534       5.1572519
       8342.7183       4.7064356
       8343.6831       4.7525881
       8344.6479       5.0576334
       8345.6127       5.0736448
       8346.5775       5.5109572
       8347.5423       5.1849508
       8348.5071       4.4520945
       8349.4719       4.7193572
       8350.4367       4.4349671
       8351.4016       4.4170370
       8352.3664       4.5521920
       8353.3312       5.1139213
       8354.2960       5.0734378
       8355.2608       4.8624255
       8356.2256       5.9192307
       8357.1904       5.1457254
       8358.1552       4.6970701
