# wavelength flux
       2308.6779      0.12601566
       2309.4774     0.089962296
       2310.2769     0.068439084
       2311.0765      0.11974010
       2311.8760      0.12348893
       2312.6755      0.10140894
       2313.4750     0.068181668
       2314.2745     0.047950432
       2315.0741     0.053631891
       2315.8736     0.078537831
       2316.6731     0.051858992
       2317.4726      0.17927301
       2318.2721    0.0017586891
       2319.0716     0.067766024
       2319.8712   -0.0023064205
       2320.6707      0.10382018
       2321.4702     0.062394430
       2322.2697     0.059825995
       2323.0692     0.080821861
       2323.8688    -0.079895076
       2324.6683     0.029520241
       2325.4678     0.082396600
       2326.2673     0.095775149
       2327.0668     0.054823160
       2327.8664     0.075775748
       2328.6659     0.079579488
       2329.4654     0.041250544
       2330.2649      0.15406452
       2331.0644      0.14425617
       2331.8640     0.087368365
       2332.6635     0.049561127
       2333.4630    0.0057989354
       2334.2625     0.076393218
       2335.0620      0.10574367
       2335.8616      0.13234592
       2336.6611    0.0024131141
       2337.4606   -0.0030534068
       2338.2601    -0.024575258
       2339.0596     0.054589405
       2339.8591     0.096692165
       2340.6587     0.048056268
       2341.4582     0.082721236
       2342.2577     0.098149532
       2343.0572      0.11771724
       2343.8567     0.098202592
       2344.6563     0.067009005
       2345.4558      0.12275400
       2346.2553     0.080270140
       2347.0548      0.13014005
       2347.8543     0.094336949
       2348.6539     0.081736161
       2349.4534     0.085739846
       2350.2529      0.14129830
       2351.0524      0.11491997
       2351.8519      0.11263931
       2352.6515     0.079547051
       2353.4510     0.055407218
       2354.2505     0.033241491
       2355.0500     0.055998143
       2355.8495     0.080695000
       2356.6491     0.072415572
       2357.4486     0.092326402
       2358.2481     0.039241848
       2359.0476     0.070228768
       2359.8471     0.056696269
       2360.6467     0.080013565
       2361.4462    0.0051815860
       2362.2457     0.090828978
       2363.0452      0.14155383
       2363.8447     0.045541877
       2364.6442     0.058534370
       2365.4438      0.15738381
       2366.2433     0.050985443
       2367.0428      0.11364223
       2367.8423     0.047587932
       2368.6418     0.013801408
       2369.4414      0.10596979
       2370.2409     0.093831705
       2371.0404      0.20300050
       2371.8399      0.22799274
       2372.6394     0.088449466
       2373.4390     0.096116816
       2374.2385     0.089000458
       2375.0380     0.096812315
       2375.8375      0.16631835
       2376.6370      0.19088186
       2377.4366     0.095914168
       2378.2361      0.11926646
       2379.0356      0.13956622
       2379.8351      0.11509184
       2380.6346      0.13049178
       2381.4342     0.085322556
       2382.2337     0.056822706
       2383.0332     0.018671771
       2383.8327     0.091341211
       2384.6322      0.14178858
       2385.4317     0.074203073
       2386.2313     0.081465472
       2387.0308      0.11201401
       2387.8303      0.12101003
       2388.6298     0.065925748
       2389.4293      0.10844053
       2390.2289     0.073402563
       2391.0284      0.13803875
       2391.8279      0.13290826
       2392.6274      0.12846835
       2393.4269     0.063651108
       2394.2265     0.093158743
       2395.0260     0.011847221
       2395.8255     0.087768505
       2396.6250      0.11147463
       2397.4245     0.098857401
       2398.2241     0.070147940
       2399.0236      0.12133709
       2399.8231     0.089467575
       2400.6226      0.10218870
       2401.4221      0.10291833
       2402.2217     0.077516251
       2403.0212      0.15978047
       2403.8207      0.19075115
       2404.6202     0.045447943
       2405.4197      0.11249181
       2406.2192     0.082051668
       2407.0188     0.086704032
       2407.8183      0.14065750
       2408.6178      0.14040752
       2409.4173     0.086715481
       2410.2168      0.11246057
       2411.0164      0.14144965
       2411.8159      0.14038180
       2412.6154      0.10795685
       2413.4149      0.15989154
       2414.2144      0.10650878
       2415.0140      0.11769628
       2415.8135      0.15592115
       2416.6130      0.13432856
       2417.4125      0.12867111
       2418.2120      0.13551797
       2419.0116      0.15559906
       2419.8111      0.11837916
       2420.6106      0.10998993
       2421.4101      0.16022623
       2422.2096      0.18341424
       2423.0092      0.15678805
       2423.8087     0.069801243
       2424.6082      0.16321174
       2425.4077      0.13812870
       2426.2072      0.16179934
       2427.0067      0.12855416
       2427.8063      0.18342496
       2428.6058     0.057383257
       2429.4053      0.10676474
       2430.2048      0.12922137
       2431.0043      0.22316017
       2431.8039      0.18628155
       2432.6034      0.21392406
       2433.4029      0.15067906
       2434.2024      0.16904876
       2435.0019      0.13571614
       2435.8015      0.12412717
       2436.6010      0.15192399
       2437.4005      0.10478709
       2438.2000      0.11211137
       2438.9995      0.12320238
       2439.7991      0.10849908
       2440.5986      0.16080889
       2441.3981     0.097007580
       2442.1976      0.11535717
       2442.9971     0.041727954
       2443.7967     0.052617572
       2444.5962     0.067339922
       2445.3957      0.17287955
       2446.1952      0.13232817
       2446.9947      0.15087787
       2447.7942      0.11270597
       2448.5938      0.11014497
       2449.3933      0.14699039
       2450.1928      0.12697684
       2450.9923      0.15724565
       2451.7918     0.097227811
       2452.5914      0.11496353
       2453.3909      0.16371355
       2454.1904      0.15493259
       2454.9899      0.15584859
       2455.7894      0.14650465
       2456.5890      0.20206291
       2457.3885      0.12541771
       2458.1880      0.10197361
       2458.9875      0.15529677
       2459.7870      0.14953314
       2460.5866      0.11835547
       2461.3861     0.099606057
       2462.1856      0.15631605
       2462.9851      0.16905141
       2463.7846     0.098808090
       2464.5842      0.10668693
       2465.3837     0.066880488
       2466.1832     0.091667532
       2466.9827     0.073173539
       2467.7822      0.13897382
       2468.5817      0.11660821
       2469.3813      0.18342824
       2470.1808      0.11454559
       2470.9803      0.11835172
       2471.7798      0.10921940
       2472.5793      0.14256248
       2473.3789      0.11367332
       2474.1784      0.15507377
       2474.9779      0.15332363
       2475.7774      0.16622747
       2476.5769      0.13077195
       2477.3765      0.13403794
       2478.1760      0.14196180
       2478.9755      0.10931150
       2479.7750      0.19114545
       2480.5745      0.15278724
       2481.3741      0.14355554
       2482.1736      0.15966742
       2482.9731      0.13068534
       2483.7726      0.12001286
       2484.5721      0.14916375
       2485.3717      0.16417338
       2486.1712     0.091856768
       2486.9707      0.17193358
       2487.7702      0.13169680
       2488.5697      0.11589511
       2489.3693      0.10396366
       2490.1688      0.15906387
       2490.9683      0.15232629
       2491.7678      0.11978163
       2492.5673      0.13639918
       2493.3668      0.12346832
       2494.1664      0.11203968
       2494.9659      0.17686076
       2495.7654     0.097372853
       2496.5649      0.14944438
       2497.3644     0.092604375
       2498.1640     0.084004647
       2498.9635      0.15264849
       2499.7630      0.10715587
       2500.5625      0.11976280
       2501.3620      0.13488820
       2502.1616      0.15969597
       2502.9611      0.12024164
       2503.7606     0.081356405
       2504.5601      0.13407156
       2505.3596      0.10360137
       2506.1592      0.16579443
       2506.9587      0.14076591
       2507.7582      0.10326277
       2508.5577      0.14858715
       2509.3572      0.16522560
       2510.1568      0.16244558
       2510.9563      0.15154526
       2511.7558      0.15336531
       2512.5553      0.12235048
       2513.3548      0.15182195
       2514.1543      0.17394770
       2514.9539      0.13056171
       2515.7534      0.13288220
       2516.5529      0.12055599
       2517.3524      0.13303688
       2518.1519      0.10050109
       2518.9515      0.10268552
       2519.7510      0.14066505
       2520.5505      0.10891503
       2521.3500      0.11187969
       2522.1495      0.10563792
       2522.9491     0.097481528
       2523.7486      0.13242914
       2524.5481      0.14073394
       2525.3476     0.090631963
       2526.1471      0.12680318
       2526.9467      0.12678303
       2527.7462      0.17865136
       2528.5457      0.16934128
       2529.3452      0.13735283
       2530.1447      0.10117433
       2530.9443      0.10904881
       2531.7438      0.15866244
       2532.5433      0.13838069
       2533.3428      0.14844131
       2534.1423      0.14618399
       2534.9418      0.16996447
       2535.7414      0.15498031
       2536.5409      0.15835572
       2537.3404      0.15683509
       2538.1399      0.14748058
       2538.9394      0.13385792
       2539.7390      0.18294842
       2540.5385      0.11302581
       2541.3380      0.12447648
       2542.1375      0.15478702
       2542.9370     0.061137459
       2543.7366      0.13939800
       2544.5361      0.12917289
       2545.3356      0.14069548
       2546.1351      0.17683784
       2546.9346      0.12085568
       2547.7342      0.10560537
       2548.5337      0.15599313
       2549.3332      0.19947016
       2550.1327      0.14734322
       2550.9322      0.13364200
       2551.7318      0.16156280
       2552.5313      0.13429872
       2553.3308     0.083760324
       2554.1303      0.12207817
       2554.9298      0.10031315
       2555.7293      0.14118918
       2556.5289      0.15702114
       2557.3284      0.16790464
       2558.1279      0.12290525
       2558.9274      0.12662051
       2559.7269     0.093694907
       2560.5265      0.14249307
       2561.3260      0.15391291
       2562.1255      0.19733544
       2562.9250      0.13442684
       2563.7245      0.14300929
       2564.5241      0.16613982
       2565.3236      0.18326514
       2566.1231      0.14059599
       2566.9226      0.13821038
       2567.7221      0.18313676
       2568.5217      0.14459377
       2569.3212      0.13812953
       2570.1207      0.14502539
       2570.9202      0.15718837
       2571.7197      0.15717858
       2572.5193      0.16775893
       2573.3188      0.15887167
       2574.1183      0.13589239
       2574.9178      0.12680334
       2575.7173      0.13577881
       2576.5168      0.12761216
       2577.3164      0.11520343
       2578.1159      0.19559791
       2578.9154      0.11820861
       2579.7149      0.13323487
       2580.5144      0.11027437
       2581.3140      0.13164272
       2582.1135     0.088378709
       2582.9130     0.086031733
       2583.7125      0.11118848
       2584.5120     0.092335493
       2585.3116      0.15271949
       2586.1111      0.11224693
       2586.9106      0.14654698
       2587.7101      0.13160559
       2588.5096      0.13241278
       2589.3092      0.10602975
       2590.1087      0.14497963
       2590.9082      0.17555020
       2591.7077      0.15631701
       2592.5072      0.12560076
       2593.3068      0.16873437
       2594.1063      0.16196387
       2594.9058      0.14204900
       2595.7053      0.10044714
       2596.5048      0.10479429
       2597.3043      0.16028472
       2598.1039      0.10762075
       2598.9034      0.12700320
       2599.7029      0.14081222
       2600.5024      0.13005129
       2601.3019      0.16720238
       2602.1015      0.14057986
       2602.9010      0.12586764
       2603.7005      0.15057771
       2604.5000      0.16847906
       2605.2995      0.14330230
       2606.0991      0.13585337
       2606.8986      0.11723034
       2607.6981      0.14404047
       2608.4976      0.16672146
       2609.2971      0.13460888
       2610.0967      0.14824669
       2610.8962      0.17867570
       2611.6957      0.21123857
       2612.4952      0.15247077
       2613.2947      0.13440261
       2614.0943      0.15128404
       2614.8938      0.14363834
       2615.6933      0.20039869
       2616.4928      0.17609120
       2617.2923      0.14999708
       2618.0918      0.16579513
       2618.8914      0.15444295
       2619.6909      0.19451829
       2620.4904      0.20691896
       2621.2899      0.14511752
       2622.0894      0.16865206
       2622.8890      0.19431557
       2623.6885      0.22465830
       2624.4880      0.18080609
       2625.2875      0.17327476
       2626.0870      0.19873252
       2626.8866      0.12946510
       2627.6861      0.19173818
       2628.4856      0.14917691
       2629.2851      0.11729794
       2630.0846      0.16812813
       2630.8842      0.14184169
       2631.6837      0.17479928
       2632.4832      0.17269669
       2633.2827      0.18189841
       2634.0822      0.20201227
       2634.8818      0.19135989
       2635.6813      0.15329265
       2636.4808      0.10923587
       2637.2803      0.17017516
       2638.0798      0.20337138
       2638.8794      0.18686425
       2639.6789      0.20519360
       2640.4784      0.18070390
       2641.2779      0.16050065
       2642.0774      0.20403592
       2642.8769      0.12517210
       2643.6765      0.21094911
       2644.4760      0.22549075
       2645.2755      0.22699405
       2646.0750      0.17583988
       2646.8745      0.16193254
       2647.6741      0.23628650
       2648.4736      0.17857553
       2649.2731      0.19577471
       2650.0726      0.19772538
       2650.8721      0.24206272
       2651.6717      0.22327139
       2652.4712      0.23691373
       2653.2707      0.22924038
       2654.0702      0.21449895
       2654.8697      0.19758800
       2655.6693      0.18560667
       2656.4688      0.25136042
       2657.2683      0.18652679
       2658.0678      0.20093158
       2658.8673      0.21045771
       2659.6669      0.19263621
       2660.4664      0.17635337
       2661.2659      0.14832301
       2662.0654      0.17179003
       2662.8649      0.17983368
       2663.6644      0.14441698
       2664.4640      0.18549892
       2665.2635      0.14303064
       2666.0630      0.13302731
       2666.8625      0.13507648
       2667.6620      0.20775536
       2668.4616      0.17649615
       2669.2611      0.17908704
       2670.0606      0.17482208
       2670.8601      0.20082050
       2671.6596      0.20006530
       2672.4592      0.18563715
       2673.2587      0.17579968
       2674.0582      0.15690921
       2674.8577      0.18521413
       2675.6572      0.17832114
       2676.4568      0.23724474
       2677.2563      0.16386186
       2678.0558      0.20169694
       2678.8553      0.23389579
       2679.6548      0.20944072
       2680.4544      0.21821747
       2681.2539      0.18026166
       2682.0534      0.16769512
       2682.8529      0.19979873
       2683.6524      0.21506119
       2684.4519      0.19686048
       2685.2515      0.21601615
       2686.0510      0.18676984
       2686.8505      0.18364429
       2687.6500      0.20094796
       2688.4495      0.22265075
       2689.2491      0.17389552
       2690.0486      0.17953227
       2690.8481      0.19379241
       2691.6476      0.16628334
       2692.4471      0.15677940
       2693.2467      0.19236195
       2694.0462      0.18715484
       2694.8457      0.21240963
       2695.6452      0.17582944
       2696.4447      0.19711940
       2697.2443      0.19213798
       2698.0438      0.20212346
       2698.8433      0.18037338
       2699.6428      0.15986081
       2700.4423      0.22490914
       2701.2419      0.21486451
       2702.0414      0.18741953
       2702.8409      0.16098011
       2703.6404      0.19989390
       2704.4399      0.18822164
       2705.2394      0.18493788
       2706.0390      0.18129397
       2706.8385      0.23996432
       2707.6380      0.19921793
       2708.4375      0.18489983
       2709.2370      0.20198405
       2710.0366      0.16727244
       2710.8361      0.21328572
       2711.6356      0.24898560
       2712.4351      0.23866041
       2713.2346      0.21888748
       2714.0342      0.21479469
       2714.8337      0.15013827
       2715.6332      0.19360704
       2716.4327      0.18068234
       2717.2322      0.22999719
       2718.0318      0.21107014
       2718.8313      0.18935898
       2719.6308      0.17716574
       2720.4303      0.20746975
       2721.2298      0.20923924
       2722.0294      0.17845406
       2722.8289      0.21350437
       2723.6284      0.21756737
       2724.4279      0.20354189
       2725.2274      0.17348895
       2726.0269      0.20157341
       2726.8265      0.20279914
       2727.6260      0.19689820
       2728.4255      0.19868730
       2729.2250      0.20613799
       2730.0245      0.19443058
       2730.8241      0.18496398
       2731.6236      0.22830080
       2732.4231      0.23627765
       2733.2226      0.20108943
       2734.0221      0.20128240
       2734.8217      0.21851171
       2735.6212      0.19923223
       2736.4207      0.20480500
       2737.2202      0.22036903
       2738.0197      0.21601914
       2738.8193      0.16051868
       2739.6188      0.12023722
       2740.4183      0.17611246
       2741.2178      0.21536752
       2742.0173      0.18062062
       2742.8169      0.22007004
       2743.6164      0.21352102
       2744.4159      0.21107324
       2745.2154      0.15095887
       2746.0149      0.16772272
       2746.8144      0.22824013
       2747.6140      0.19507926
       2748.4135      0.21244271
       2749.2130      0.19830595
       2750.0125      0.18113047
       2750.8120      0.22570814
       2751.6116      0.18309396
       2752.4111      0.19357675
       2753.2106      0.23702013
       2754.0101      0.20737192
       2754.8096      0.19336883
       2755.6092      0.20660847
       2756.4087      0.21428017
       2757.2082      0.19887113
       2758.0077      0.17874382
       2758.8072      0.19701544
       2759.6068      0.19280526
       2760.4063      0.19436840
       2761.2058      0.19395488
       2762.0053      0.20819519
       2762.8048      0.20607393
       2763.6044      0.20503145
       2764.4039      0.19834734
       2765.2034      0.22860845
       2766.0029      0.18843442
       2766.8024      0.22029433
       2767.6020      0.19535302
       2768.4015      0.17623776
       2769.2010      0.18403619
       2770.0005      0.20185051
       2770.8000      0.19984722
       2771.5995      0.22239020
       2772.3991      0.21374507
       2773.1986      0.19218874
       2773.9981      0.20008435
       2774.7976      0.22785459
       2775.5971      0.19889465
       2776.3967      0.20815396
       2777.1962      0.20522006
       2777.9957      0.22902845
       2778.7952      0.25275248
       2779.5947      0.23444051
       2780.3943      0.20421952
       2781.1938      0.19637636
       2781.9933      0.20456261
       2782.7928      0.20496757
       2783.5923      0.17008245
       2784.3919      0.19202625
       2785.1914      0.17007382
       2785.9909      0.20376609
       2786.7904      0.21299566
       2787.5899      0.18444405
       2788.3895      0.19950176
       2789.1890      0.18611459
       2789.9885      0.23222142
       2790.7880      0.22370172
       2791.5875      0.21263970
       2792.3870      0.18541831
       2793.1866      0.18043177
       2793.9861      0.19196680
       2794.7856      0.17066424
       2795.5851      0.12305949
       2796.3846      0.13438165
       2797.1842      0.11151275
       2797.9837     0.082524329
       2798.7832     0.097526073
       2799.5827      0.10588442
       2800.3822      0.12598113
       2801.1818      0.13163974
       2801.9813      0.13365852
       2802.7808      0.16590223
       2803.5803      0.10777808
       2804.3798      0.16312260
       2805.1794      0.12799717
       2805.9789      0.13036908
       2806.7784      0.11450306
       2807.5779      0.14239737
       2808.3774      0.14528859
       2809.1770      0.14754304
       2809.9765      0.16265553
       2810.7760      0.17261181
       2811.5755      0.20806146
       2812.3750      0.20208335
       2813.1745      0.22601663
       2813.9741      0.21035512
       2814.7736      0.21362422
       2815.5731      0.19958190
       2816.3726      0.18760671
       2817.1721      0.20267588
       2817.9717      0.23587219
       2818.7712      0.21483800
       2819.5707      0.20430321
       2820.3702      0.16628179
       2821.1697      0.20071021
       2821.9693      0.21170752
       2822.7688      0.24382691
       2823.5683      0.18670102
       2824.3678      0.21500514
       2825.1673      0.22781447
       2825.9669      0.25204466
       2826.7664      0.21753767
       2827.5659      0.24003924
       2828.3654      0.20998278
       2829.1649      0.24723512
       2829.9645      0.22610504
       2830.7640      0.21765376
       2831.5635      0.20604657
       2832.3630      0.24179235
       2833.1625      0.22765066
       2833.9620      0.22461492
       2834.7616      0.23957389
       2835.5611      0.23448309
       2836.3606      0.20958124
       2837.1601      0.21246305
       2837.9596      0.22099892
       2838.7592      0.20242186
       2839.5587      0.20821696
       2840.3582      0.21003311
       2841.1577      0.21217095
       2841.9572      0.22711035
       2842.7568      0.19106258
       2843.5563      0.19753315
       2844.3558      0.21515130
       2845.1553      0.24098066
       2845.9548      0.24111535
       2846.7544      0.22397597
       2847.5539      0.20162426
       2848.3534      0.24989421
       2849.1529      0.23520927
       2849.9524      0.22626181
       2850.7520      0.16925551
       2851.5515      0.21572686
       2852.3510      0.24115620
       2853.1505      0.20842696
       2853.9500      0.18577324
       2854.7495      0.18349006
       2855.5491      0.20389911
       2856.3486      0.17008693
       2857.1481      0.17188024
       2857.9476      0.15478043
       2858.7471      0.17182514
       2859.5467      0.18813218
       2860.3462      0.19334621
       2861.1457      0.21333939
       2861.9452      0.21014133
       2862.7447      0.21488669
       2863.5443      0.21925129
       2864.3438      0.22028694
       2865.1433      0.24187683
       2865.9428      0.21822703
       2866.7423      0.23948463
       2867.5419      0.22872124
       2868.3414      0.22574046
       2869.1409      0.21251654
       2869.9404      0.18958341
       2870.7399      0.19614646
       2871.5395      0.19960664
       2872.3390      0.22592651
       2873.1385      0.19965253
       2873.9380      0.19154691
       2874.7375      0.25329674
       2875.5370      0.21042182
       2876.3366      0.24643128
       2877.1361      0.20289609
       2877.9356      0.20983265
       2878.7351      0.17871794
       2879.5346      0.21003227
       2880.3342      0.23223532
       2881.1337      0.23735274
       2881.9332      0.24546215
       2882.7327      0.21869285
       2883.5322      0.22365987
       2884.3318      0.22063918
       2885.1313      0.21680282
       2885.9308      0.24236751
       2886.7303      0.24096191
       2887.5298      0.22793810
       2888.3294      0.24345461
       2889.1289      0.24070886
       2889.9284      0.22288973
       2890.7279      0.23282861
       2891.5274      0.21453050
       2892.3270      0.22075741
       2893.1265      0.22494030
       2893.9260      0.24187221
       2894.7255      0.22805102
       2895.5250      0.20421604
       2896.3246      0.25651700
       2897.1241      0.22030092
       2897.9236      0.22928427
       2898.7231      0.24259922
       2899.5226      0.21347491
       2900.3221      0.23696581
       2901.1217      0.22403964
       2901.9212      0.21338492
       2902.7207      0.25870459
       2903.5202      0.22979631
       2904.3197      0.21520736
       2905.1193      0.22471406
       2905.9188      0.25507493
       2906.7183      0.25345129
       2907.5178      0.28102440
       2908.3173      0.24079198
       2909.1169      0.25563094
       2909.9164      0.23965044
       2910.7159      0.24401043
       2911.5154      0.25855779
       2912.3149      0.24068592
       2913.1145      0.24997283
       2913.9140      0.26302156
       2914.7135      0.25092355
       2915.5130      0.24926959
       2916.3125      0.23394565
       2917.1121      0.23166893
       2917.9116      0.27676298
       2918.7111      0.25918623
       2919.5106      0.24475837
       2920.3101      0.23678192
       2921.1096      0.23561645
       2921.9092      0.26199675
       2922.7087      0.25952770
       2923.5082      0.23800118
       2924.3077      0.25905026
       2925.1072      0.22793609
       2925.9068      0.21110854
       2926.7063      0.22285797
       2927.5058      0.21373449
       2928.3053      0.22122032
       2929.1048      0.24411291
       2929.9044      0.23786155
       2930.7039      0.21627564
       2931.5034      0.23088450
       2932.3029      0.23044138
       2933.1024      0.24561190
       2933.9020      0.23112633
       2934.7015      0.23257055
       2935.5010      0.24111459
       2936.3005      0.20452327
       2937.1000      0.25240214
       2937.8996      0.27925318
       2938.6991      0.27919384
       2939.4986      0.25999622
       2940.2981      0.25439502
       2941.0976      0.24262262
       2941.8971      0.22685963
       2942.6967      0.22981434
       2943.4962      0.20903603
       2944.2957      0.22249434
       2945.0952      0.24438965
       2945.8947      0.20899242
       2946.6943      0.23257801
       2947.4938      0.22919233
       2948.2933      0.22880896
       2949.0928      0.24674456
       2949.8923      0.26001136
       2950.6919      0.22458084
       2951.4914      0.23705422
       2952.2909      0.21468210
       2953.0904      0.23788908
       2953.8899      0.24306770
       2954.6895      0.23971127
       2955.4890      0.23897455
       2956.2885      0.22926008
       2957.0880      0.21416687
       2957.8875      0.24181820
       2958.6871      0.24841370
       2959.4866      0.27026951
       2960.2861      0.25897902
       2961.0856      0.23996144
       2961.8851      0.23831262
       2962.6846      0.23736973
       2963.4842      0.25079422
       2964.2837      0.22201996
       2965.0832      0.25750880
       2965.8827      0.22332405
       2966.6822      0.25893750
       2967.4818      0.26735710
       2968.2813      0.24952890
       2969.0808      0.24554466
       2969.8803      0.27837603
       2970.6798      0.25072646
       2971.4794      0.29808412
       2972.2789      0.27086986
       2973.0784      0.25916846
       2973.8779      0.24517641
       2974.6774      0.29233608
       2975.4770      0.26306589
       2976.2765      0.21817362
       2977.0760      0.26306749
       2977.8755      0.27151080
       2978.6750      0.31609284
       2979.4746      0.26249530
       2980.2741      0.28295982
       2981.0736      0.26567589
       2981.8731      0.30257763
       2982.6726      0.26913135
       2983.4721      0.24505118
       2984.2717      0.26288584
       2985.0712      0.23412024
       2985.8707      0.26064295
       2986.6702      0.25895575
       2987.4697      0.27906096
       2988.2693      0.25894946
       2989.0688      0.25866607
       2989.8683      0.23591512
       2990.6678      0.27667651
       2991.4673      0.25652363
       2992.2669      0.25776475
       2993.0664      0.27323594
       2993.8659      0.29031211
       2994.6654      0.25271006
       2995.4649      0.24566086
       2996.2645      0.25972036
       2997.0640      0.29049835
       2997.8635      0.26476873
       2998.6630      0.27374890
       2999.4625      0.29168277
       3000.2621      0.28645497
       3001.0616      0.29127422
       3001.8611      0.29230860
       3002.6606      0.26430799
       3003.4601      0.29294552
       3004.2596      0.30136446
       3005.0592      0.28471890
       3005.8587      0.27983231
       3006.6582      0.27353095
       3007.4577      0.27591284
       3008.2572      0.25676431
       3009.0568      0.28699178
       3009.8563      0.27701013
       3010.6558      0.26073639
       3011.4553      0.28774702
       3012.2548      0.29049125
       3013.0544      0.29430557
       3013.8539      0.29024032
       3014.6534      0.26771810
       3015.4529      0.30975333
       3016.2524      0.27819048
       3017.0520      0.28214730
       3017.8515      0.27356350
       3018.6510      0.29367577
       3019.4505      0.27451303
       3020.2500      0.27314451
       3021.0496      0.30805577
       3021.8491      0.26908047
       3022.6486      0.28505301
       3023.4481      0.29573788
       3024.2476      0.28037236
       3025.0472      0.26570600
       3025.8467      0.30046161
       3026.6462      0.27210747
       3027.4457      0.26352727
       3028.2452      0.28033960
       3029.0447      0.24935560
       3029.8443      0.25809405
       3030.6438      0.27265746
       3031.4433      0.27769408
       3032.2428      0.28557194
       3033.0423      0.26319949
       3033.8419      0.27392478
       3034.6414      0.25513445
       3035.4409      0.25360336
       3036.2404      0.26934645
       3037.0399      0.29903053
       3037.8395      0.28345319
       3038.6390      0.29398128
       3039.4385      0.27438967
       3040.2380      0.30728587
       3041.0375      0.30409345
       3041.8371      0.28308406
       3042.6366      0.26265109
       3043.4361      0.30051563
       3044.2356      0.25170061
       3045.0351      0.29353810
       3045.8347      0.29716117
       3046.6342      0.32583476
       3047.4337      0.30705661
       3048.2332      0.25872753
       3049.0327      0.25741402
       3049.8322      0.27605928
       3050.6318      0.28518759
       3051.4313      0.27912386
       3052.2308      0.28682310
       3053.0303      0.28951549
       3053.8298      0.27015005
       3054.6294      0.29631928
       3055.4289      0.27314584
       3056.2284      0.29160247
       3057.0279      0.29486208
       3057.8274      0.30264111
       3058.6270      0.31228772
       3059.4265      0.28698037
       3060.2260      0.30313178
       3061.0255      0.31772729
       3061.8250      0.27880571
       3062.6246      0.26288897
       3063.4241      0.25993460
       3064.2236      0.25129034
       3065.0231      0.27994404
       3065.8226      0.27835843
       3066.6222      0.27844106
       3067.4217      0.26937746
       3068.2212      0.31519075
       3069.0207      0.30401319
       3069.8202      0.28228867
       3070.6197      0.31201377
       3071.4193      0.27039569
       3072.2188      0.30096812
       3073.0183      0.26908105
       3073.8178      0.29924924
       3074.6173      0.26207377
       3075.4169      0.29044661
       3076.2164      0.30953038
       3077.0159      0.31186067
       3077.8154      0.34098876
       3078.6149      0.28172023
       3079.4145      0.28121520
       3080.2140      0.27723262
       3081.0135      0.31009600
       3081.8130      0.30868484
       3082.6125      0.32093960
       3083.4121      0.32713410
       3084.2116      0.29077095
       3085.0111      0.28994978
       3085.8106      0.30227333
       3086.6101      0.32406600
       3087.4097      0.30454842
       3088.2092      0.31046022
       3089.0087      0.30737743
       3089.8082      0.31039029
       3090.6077      0.29681004
       3091.4072      0.30809937
       3092.2068      0.31643638
       3093.0063      0.31591730
       3093.8058      0.32084793
       3094.6053      0.30555455
       3095.4048      0.33337916
       3096.2044      0.33072571
       3097.0039      0.27813674
       3097.8034      0.30787571
       3098.6029      0.33570531
       3099.4024      0.33458901
       3100.2020      0.32308450
       3101.0015      0.28731071
       3101.8010      0.25329224
       3102.6005      0.28599958
       3103.4000      0.32061793
       3104.1996      0.31230140
       3104.9991      0.30572242
       3105.7986      0.31479779
       3106.5981      0.32455504
       3107.3976      0.31780029
       3108.1972      0.30726383
       3108.9967      0.32025364
       3109.7962      0.34011532
       3110.5957      0.33551307
       3111.3952      0.32281784
       3112.1947      0.32721381
       3112.9943      0.32800549
       3113.7938      0.30894885
       3114.5933      0.33495754
       3115.3928      0.32636645
       3116.1923      0.32931709
       3116.9919      0.30321128
       3117.7914      0.35567139
       3118.5909      0.36212155
       3119.3904      0.33622588
       3120.1899      0.31622440
       3120.9895      0.35901891
       3121.7890      0.33161119
       3122.5885      0.31941285
       3123.3880      0.30352193
       3124.1875      0.29669391
       3124.9871      0.31490097
       3125.7866      0.27836345
       3126.5861      0.28723508
       3127.3856      0.30411520
       3128.1851      0.31002641
       3128.9847      0.31029359
       3129.7842      0.33370463
       3130.5837      0.30713087
       3131.3832      0.33439641
       3132.1827      0.32110026
       3132.9822      0.35472898
       3133.7818      0.32539677
       3134.5813      0.33166327
       3135.3808      0.30056352
       3136.1803      0.33651966
       3136.9798      0.34005491
       3137.7794      0.30640621
       3138.5789      0.32163560
       3139.3784      0.33336747
       3140.1779      0.32974973
       3140.9774      0.36038886
       3141.7770      0.32929856
       3142.5765      0.31881015
       3143.3760      0.34238766
       3144.1755      0.34512165
       3144.9750      0.33490107
       3145.7746      0.35358907
       3146.5741      0.35520647
       3147.3736      0.35801479
       3148.1731      0.35719134
       3148.9726      0.35090186
       3149.7722      0.31129430
       3150.5717      0.32885480
       3151.3712      0.34730949
       3152.1707      0.32878016
       3152.9702      0.34104686
       3153.7698      0.34755384
       3154.5693      0.36109544
       3155.3688      0.32786623
       3156.1683      0.37303733
       3156.9678      0.36473212
       3157.7673      0.35334384
       3158.5669      0.35297692
       3159.3664      0.32606156
       3160.1659      0.37141206
       3160.9654      0.34378783
       3161.7649      0.35529688
       3162.5645      0.34647644
       3163.3640      0.31685525
       3164.1635      0.28948011
       3164.9630      0.32569198
       3165.7625      0.33664386
       3166.5621      0.31282199
       3167.3616      0.33488448
       3168.1611      0.31735619
       3168.9606      0.34911746
       3169.7601      0.33906522
       3170.5597      0.33768686
       3171.3592      0.30863647
       3172.1587      0.32031453
       3172.9582      0.35127985
       3173.7577      0.31671591
       3174.5573      0.35082202
       3175.3568      0.33548031
       3176.1563      0.35656547
       3176.9558      0.35994266
       3177.7553      0.38589063
       3178.5548      0.37996869
       3179.3544      0.38239972
       3180.1539      0.36076145
       3180.9534      0.36334022
       3181.7529      0.37968326
       3182.5524      0.36555069
       3183.3520      0.37983701
       3184.1515      0.36760787
       3184.9510      0.29094344
       3185.7505      0.32958420
       3186.5500      0.34076228
       3187.3496      0.36096506
       3188.1491      0.35851931
       3188.9486      0.36293471
       3189.7481      0.33926664
       3190.5476      0.33094429
       3191.3472      0.32114309
       3192.1467      0.33319535
       3192.9462      0.33724812
       3193.7457      0.36558878
       3194.5452      0.39849232
       3195.3448      0.36678579
       3196.1443      0.34743862
       3196.9438      0.35940208
       3197.7433      0.33618942
       3198.5428      0.32865086
       3199.3423      0.33496999
       3200.1419      0.33678923
       3200.9414      0.32606943
       3201.7409      0.34627978
       3202.5404      0.35895732
       3203.3399      0.35089901
       3204.1395      0.34058095
       3204.9390      0.35691325
       3205.7385      0.36835425
       3206.5380      0.37086022
       3207.3375      0.39334080
       3208.1371      0.37549017
       3208.9366      0.37120630
       3209.7361      0.37845182
       3210.5356      0.39234295
       3211.3351      0.39007098
       3212.1347      0.37659806
       3212.9342      0.39465414
       3213.7337      0.35077184
       3214.5332      0.37143594
       3215.3327      0.34807265
       3216.1323      0.35466182
       3216.9318      0.33894841
       3217.7313      0.35475762
       3218.5308      0.34655156
       3219.3303      0.31895419
       3220.1298      0.32959663
       3220.9294      0.34135066
       3221.7289      0.37709097
       3222.5284      0.36100294
       3223.3279      0.36807671
       3224.1274      0.35531956
       3224.9270      0.35019125
       3225.7265      0.35577096
       3226.5260      0.32357114
       3227.3255      0.36689411
       3228.1250      0.37759426
       3228.9246      0.33400300
       3229.7241      0.36274107
       3230.5236      0.37120117
       3231.3231      0.38439816
       3232.1226      0.37872349
       3232.9222      0.31385518
       3233.7217      0.34908587
       3234.5212      0.35956896
       3235.3207      0.32983738
       3236.1202      0.32861986
       3236.9198      0.32296348
       3237.7193      0.35232903
       3238.5188      0.36625532
       3239.3183      0.36168508
       3240.1178      0.33945424
       3240.9173      0.37330942
       3241.7169      0.36897791
       3242.5164      0.37730903
       3243.3159      0.34636463
       3244.1154      0.37025506
       3244.9149      0.33946704
       3245.7145      0.35118650
       3246.5140      0.40174842
       3247.3135      0.38410198
       3248.1130      0.37654611
       3248.9125      0.38944854
       3249.7121      0.41794335
       3250.5116      0.40444168
       3251.3111      0.39272052
       3252.1106      0.35993784
       3252.9101      0.40747029
       3253.7097      0.39924960
       3254.5092      0.38689763
       3255.3087      0.38571620
       3256.1082      0.41060266
       3256.9077      0.37886052
       3257.7073      0.42551786
       3258.5068      0.40009061
       3259.3063      0.37103564
       3260.1058      0.39405516
       3260.9053      0.38148925
       3261.7048      0.38616556
       3262.5044      0.40345267
       3263.3039      0.39295576
       3264.1034      0.39001104
       3264.9029      0.42514470
       3265.7024      0.40301216
       3266.5020      0.39101134
       3267.3015      0.42049582
       3268.1010      0.40360099
       3268.9005      0.41812447
       3269.7000      0.40971665
       3270.4996      0.39113839
       3271.2991      0.37893110
       3272.0986      0.38002801
       3272.8981      0.43959521
       3273.6976      0.37001200
       3274.4972      0.40716919
       3275.2967      0.38595235
       3276.0962      0.39473364
       3276.8957      0.39933916
       3277.6952      0.39080297
       3278.4948      0.41421740
       3279.2943      0.38750429
       3280.0938      0.40446436
       3280.8933      0.38839884
       3281.6928      0.42059408
       3282.4923      0.42722615
       3283.2919      0.38232384
       3284.0914      0.43280478
       3284.8909      0.43080161
       3285.6904      0.43522983
       3286.4899      0.40162745
       3287.2895      0.37286393
       3288.0890      0.40232457
       3288.8885      0.41491366
       3289.6880      0.42748675
       3290.4875      0.43995444
       3291.2871      0.38760432
       3292.0866      0.39568029
       3292.8861      0.37006655
       3293.6856      0.39979754
       3294.4851      0.37698749
       3295.2847      0.39035910
       3296.0842      0.40146359
       3296.8837      0.37271731
       3297.6832      0.43939578
       3298.4827      0.40565493
       3299.2823      0.43122110
       3300.0818      0.40712627
       3300.8813      0.41433307
       3301.6808      0.40754148
       3302.4803      0.42856184
       3303.2799      0.43256725
       3304.0794      0.42555002
       3304.8789      0.39454004
       3305.6784      0.37571842
       3306.4779      0.36709645
       3307.2774      0.39035504
       3308.0770      0.36898057
       3308.8765      0.37654256
       3309.6760      0.38710420
       3310.4755      0.38990091
       3311.2750      0.37267208
       3312.0746      0.41473291
       3312.8741      0.41052246
       3313.6736      0.41269347
       3314.4731      0.43486882
       3315.2726      0.41855871
       3316.0722      0.39472227
       3316.8717      0.44806748
       3317.6712      0.43930612
       3318.4707      0.44782220
       3319.2702      0.45485092
       3320.0698      0.38827616
       3320.8693      0.40429543
       3321.6688      0.43154748
       3322.4683      0.41310514
       3323.2678      0.41478441
       3324.0674      0.39039549
       3324.8669      0.40150811
       3325.6664      0.41745572
       3326.4659      0.41257587
       3327.2654      0.40765326
       3328.0649      0.38027296
       3328.8645      0.39020335
       3329.6640      0.41853519
       3330.4635      0.39000471
       3331.2630      0.42334447
       3332.0625      0.40742695
       3332.8621      0.42873543
       3333.6616      0.41778052
       3334.4611      0.40978974
       3335.2606      0.41832381
       3336.0601      0.41666355
       3336.8597      0.40649698
       3337.6592      0.39554002
       3338.4587      0.44817973
       3339.2582      0.40373867
       3340.0577      0.41611503
       3340.8573      0.40291851
       3341.6568      0.38454734
       3342.4563      0.38978550
       3343.2558      0.35181800
       3344.0553      0.39560574
       3344.8549      0.42714269
       3345.6544      0.39555913
       3346.4539      0.38098463
       3347.2534      0.38091619
       3348.0529      0.42575027
       3348.8524      0.41372288
       3349.6520      0.40749042
       3350.4515      0.38415096
       3351.2510      0.41515248
       3352.0505      0.42605949
       3352.8500      0.39555416
       3353.6496      0.37461418
       3354.4491      0.40095583
       3355.2486      0.42689035
       3356.0481      0.41101558
       3356.8476      0.39817929
       3357.6472      0.40074059
       3358.4467      0.41879104
       3359.2462      0.40404033
       3360.0457      0.41714324
       3360.8452      0.39604606
       3361.6448      0.42779418
       3362.4443      0.41887434
       3363.2438      0.39022734
       3364.0433      0.36830085
       3364.8428      0.38814821
       3365.6424      0.38027753
       3366.4419      0.40759130
       3367.2414      0.43032216
       3368.0409      0.39929299
       3368.8404      0.38921495
       3369.6399      0.43511252
       3370.4395      0.40641165
       3371.2390      0.39486290
       3372.0385      0.37545558
       3372.8380      0.39079815
       3373.6375      0.38146983
       3374.4371      0.35613845
       3375.2366      0.37186340
       3376.0361      0.36278468
       3376.8356      0.43043355
       3377.6351      0.37830863
       3378.4347      0.41519372
       3379.2342      0.41450078
       3380.0337      0.42313192
       3380.8332      0.41389214
       3381.6327      0.38836680
       3382.4323      0.38589015
       3383.2318      0.40760105
       3384.0313      0.38399218
       3384.8308      0.39201403
       3385.6303      0.44356861
       3386.4299      0.43221232
       3387.2294      0.42422806
       3388.0289      0.41825312
       3388.8284      0.40995558
       3389.6279      0.42396473
       3390.4274      0.44860358
       3391.2270      0.44997409
       3392.0265      0.40949620
       3392.8260      0.40700447
       3393.6255      0.43090750
       3394.4250      0.41316220
       3395.2246      0.39533175
       3396.0241      0.43579445
       3396.8236      0.41057932
       3397.6231      0.42678279
       3398.4226      0.46604960
       3399.2222      0.41036255
       3400.0217      0.38457839
       3400.8212      0.44874784
       3401.6207      0.49110161
       3402.4202      0.46123201
       3403.2198      0.45422426
       3404.0193      0.43325815
       3404.8188      0.46086074
       3405.6183      0.44406020
       3406.4178      0.43306838
       3407.2174      0.41719069
       3408.0169      0.43146639
       3408.8164      0.41313378
       3409.6159      0.37619527
       3410.4154      0.43494923
       3411.2149      0.43997766
       3412.0145      0.43202249
       3412.8140      0.44883031
       3413.6135      0.45810925
       3414.4130      0.44633784
       3415.2125      0.44040005
       3416.0121      0.42443863
       3416.8116      0.46331524
       3417.6111      0.45738955
       3418.4106      0.42737168
       3419.2101      0.43962578
       3420.0097      0.43761908
       3420.8092      0.48848636
       3421.6087      0.45909906
       3422.4082      0.47411977
       3423.2077      0.46269650
       3424.0073      0.43754226
       3424.8068      0.45694762
       3425.6063      0.42949430
       3426.4058      0.43832581
       3427.2053      0.44299460
       3428.0049      0.41511237
       3428.8044      0.45044577
       3429.6039      0.44692668
       3430.4034      0.46126275
       3431.2029      0.46224040
       3432.0025      0.45068752
       3432.8020      0.43583204
       3433.6015      0.44638381
       3434.4010      0.43026869
       3435.2005      0.46064049
       3436.0000      0.45309915
       3436.7996      0.42321299
       3437.5991      0.42692082
       3438.3986      0.46514814
       3439.1981      0.45327787
       3439.9976      0.49667364
       3440.7972      0.47640868
       3441.5967      0.43539281
       3442.3962      0.41464369
       3443.1957      0.38942624
       3443.9952      0.41287046
       3444.7948      0.42474796
       3445.5943      0.42798956
       3446.3938      0.45610406
       3447.1933      0.47009932
       3447.9928      0.42828643
       3448.7924      0.43971746
       3449.5919      0.45042284
       3450.3914      0.43969591
       3451.1909      0.38853636
       3451.9904      0.45163705
       3452.7900      0.45621876
       3453.5895      0.42080759
       3454.3890      0.43567192
       3455.1885      0.44066699
       3455.9880      0.43660744
       3456.7875      0.44375078
       3457.5871      0.45935659
       3458.3866      0.43925215
       3459.1861      0.46018511
       3459.9856      0.45791449
       3460.7851      0.48650621
       3461.5847      0.45865171
       3462.3842      0.44947894
       3463.1837      0.46493541
       3463.9832      0.42704733
       3464.7827      0.41430727
       3465.5823      0.44655989
       3466.3818      0.46797053
       3467.1813      0.44468422
       3467.9808      0.48772732
       3468.7803      0.49243971
       3469.5799      0.50102425
       3470.3794      0.51821731
       3471.1789      0.50713568
       3471.9784      0.47861692
       3472.7779      0.47237166
       3473.5775      0.41000612
       3474.3770      0.43342841
       3475.1765      0.41948235
       3475.9760      0.42810250
       3476.7755      0.39353901
       3477.5750      0.45164611
       3478.3746      0.42137505
       3479.1741      0.45810454
       3479.9736      0.45484477
       3480.7731      0.46196728
       3481.5726      0.47765671
       3482.3722      0.48722261
       3483.1717      0.47526122
       3483.9712      0.42655765
       3484.7707      0.45039303
       3485.5702      0.44552691
       3486.3698      0.46105072
       3487.1693      0.51553523
       3487.9688      0.48577487
       3488.7683      0.46091437
       3489.5678      0.40786078
       3490.3674      0.43718845
       3491.1669      0.47951952
       3491.9664      0.50096378
       3492.7659      0.44933971
       3493.5654      0.42820301
       3494.3650      0.46509912
       3495.1645      0.45920186
       3495.9640      0.43748293
       3496.7635      0.44303274
       3497.5630      0.44057463
       3498.3625      0.45540321
       3499.1621      0.46119538
       3499.9616      0.48496478
       3500.7611      0.45866859
       3501.5606      0.43919210
       3502.3601      0.45897874
       3503.1597      0.48422520
       3503.9592      0.46953942
       3504.7587      0.47662527
       3505.5582      0.46914899
       3506.3577      0.47790693
       3507.1573      0.48119281
       3507.9568      0.48865461
       3508.7563      0.49766136
       3509.5558      0.47616232
       3510.3553      0.43473481
       3511.1549      0.44896012
       3511.9544      0.46871152
       3512.7539      0.45894191
       3513.5534      0.39119413
       3514.3529      0.42864948
       3515.1525      0.47036393
       3515.9520      0.45214948
       3516.7515      0.44158068
       3517.5510      0.47380268
       3518.3505      0.51989750
       3519.1500      0.48690234
       3519.9496      0.48016847
       3520.7491      0.44445133
       3521.5486      0.44178603
       3522.3481      0.46894357
       3523.1476      0.46501166
       3523.9472      0.44350337
       3524.7467      0.45269133
       3525.5462      0.48355859
       3526.3457      0.42955004
       3527.1452      0.44207557
       3527.9448      0.46357030
       3528.7443      0.45327977
       3529.5438      0.45674174
       3530.3433      0.47530269
       3531.1428      0.42095916
       3531.9424      0.48382919
       3532.7419      0.47406526
       3533.5414      0.44180845
       3534.3409      0.48284924
       3535.1404      0.51795047
       3535.9400      0.46600023
       3536.7395      0.44082329
       3537.5390      0.45549162
       3538.3385      0.51969092
       3539.1380      0.52914586
       3539.9375      0.49570572
       3540.7371      0.49052787
       3541.5366      0.50584465
       3542.3361      0.50521992
       3543.1356      0.48773054
       3543.9351      0.48831390
       3544.7347      0.48922602
       3545.5342      0.48588122
       3546.3337      0.52339151
       3547.1332      0.50909575
       3547.9327      0.47982834
       3548.7323      0.50607263
       3549.5318      0.48240297
       3550.3313      0.48781911
       3551.1308      0.51141738
       3551.9303      0.49699186
       3552.7299      0.48608421
       3553.5294      0.48494573
       3554.3289      0.47109368
       3555.1284      0.46269597
       3555.9279      0.48443591
       3556.7275      0.45413755
       3557.5270      0.46313657
       3558.3265      0.50085876
       3559.1260      0.50697538
       3559.9255      0.50127992
       3560.7251      0.53202119
       3561.5246      0.49416511
       3562.3241      0.44688817
       3563.1236      0.42980155
       3563.9231      0.46415541
       3564.7226      0.44981845
       3565.5222      0.45083246
       3566.3217      0.45266571
       3567.1212      0.46853388
       3567.9207      0.46532172
       3568.7202      0.47646725
       3569.5198      0.46347591
       3570.3193      0.53945614
       3571.1188      0.49694638
       3571.9183      0.46428004
       3572.7178      0.45286942
       3573.5174      0.46896476
       3574.3169      0.49336054
       3575.1164      0.49214407
       3575.9159      0.47288479
       3576.7154      0.44553406
       3577.5150      0.47734970
       3578.3145      0.48945035
       3579.1140      0.48671707
       3579.9135      0.50100599
       3580.7130      0.47318616
       3581.5126      0.52893683
       3582.3121      0.52602868
       3583.1116      0.44590939
       3583.9111      0.47608188
       3584.7106      0.46954429
       3585.5101      0.41714444
       3586.3097      0.40775604
       3587.1092      0.48142612
       3587.9087      0.50712126
       3588.7082      0.45865364
       3589.5077      0.48159632
       3590.3073      0.46742154
       3591.1068      0.47554590
       3591.9063      0.49249919
       3592.7058      0.51690416
       3593.5053      0.49044403
       3594.3049      0.48362005
       3595.1044      0.47872292
       3595.9039      0.50220178
       3596.7034      0.48280915
       3597.5029      0.49329515
       3598.3025      0.47881494
       3599.1020      0.50418158
       3599.9015      0.50607917
       3600.7010      0.47955147
       3601.5005      0.47791702
       3602.3001      0.52723166
       3603.0996      0.53828749
       3603.8991      0.47168206
       3604.6986      0.45721983
       3605.4981      0.46628796
       3606.2976      0.51499457
       3607.0972      0.45845097
       3607.8967      0.48174929
       3608.6962      0.46829863
       3609.4957      0.45941921
       3610.2952      0.46460316
       3611.0948      0.47667928
       3611.8943      0.45711665
       3612.6938      0.51812058
       3613.4933      0.48261095
       3614.2928      0.47247893
       3615.0924      0.44644131
       3615.8919      0.46464111
       3616.6914      0.48898323
       3617.4909      0.54914034
       3618.2904      0.50655835
       3619.0900      0.51445504
       3619.8895      0.51716990
       3620.6890      0.49088449
       3621.4885      0.46705109
       3622.2880      0.48016572
       3623.0876      0.54176276
       3623.8871      0.51583247
       3624.6866      0.51073314
       3625.4861      0.54547731
       3626.2856      0.54679478
       3627.0851      0.53616734
       3627.8847      0.52013541
       3628.6842      0.48504641
       3629.4837      0.52079502
       3630.2832      0.46759132
       3631.0827      0.49709693
       3631.8823      0.48799519
       3632.6818      0.48146074
       3633.4813      0.47744176
       3634.2808      0.49641424
       3635.0803      0.50726307
       3635.8799      0.54089732
       3636.6794      0.50629644
       3637.4789      0.47430566
       3638.2784      0.46316973
       3639.0779      0.51612984
       3639.8775      0.48886347
       3640.6770      0.48594331
       3641.4765      0.49850533
       3642.2760      0.49341185
       3643.0755      0.49295380
       3643.8751      0.49908255
       3644.6746      0.54779710
       3645.4741      0.54087570
       3646.2736      0.49285488
       3647.0731      0.50507300
       3647.8726      0.49927339
       3648.6722      0.50991683
       3649.4717      0.51431764
       3650.2712      0.49373229
       3651.0707      0.48912188
       3651.8702      0.54286939
       3652.6698      0.48085323
       3653.4693      0.48009376
       3654.2688      0.51499881
       3655.0683      0.52316100
       3655.8678      0.51578915
       3656.6674      0.49742733
       3657.4669      0.52288378
       3658.2664      0.51667981
       3659.0659      0.53441825
       3659.8654      0.56410022
       3660.6650      0.49738795
       3661.4645      0.51242539
       3662.2640      0.53096729
       3663.0635      0.51434487
       3663.8630      0.53040151
       3664.6626      0.51207013
       3665.4621      0.53321947
       3666.2616      0.50743505
       3667.0611      0.48658995
       3667.8606      0.47487303
       3668.6601      0.51554203
       3669.4597      0.54085415
       3670.2592      0.50758064
       3671.0587      0.50883846
       3671.8582      0.53064136
       3672.6577      0.54902710
       3673.4573      0.49022495
       3674.2568      0.51230406
       3675.0563      0.52541379
       3675.8558      0.47886595
       3676.6553      0.51192843
       3677.4549      0.49553133
       3678.2544      0.51819707
       3679.0539      0.53679570
       3679.8534      0.54469657
       3680.6529      0.50312515
       3681.4525      0.48577668
       3682.2520      0.48336218
       3683.0515      0.46188238
       3683.8510      0.48314448
       3684.6505      0.46008220
       3685.4501      0.50084068
       3686.2496      0.50633346
       3687.0491      0.52070420
       3687.8486      0.53259293
       3688.6481      0.54668269
       3689.4477      0.54490858
       3690.2472      0.53163474
       3691.0467      0.52293852
       3691.8462      0.50554351
       3692.6457      0.54898126
       3693.4452      0.58196566
       3694.2448      0.55071439
       3695.0443      0.55711218
       3695.8438      0.54885398
       3696.6433      0.57368252
       3697.4428      0.49982877
       3698.2424      0.49428067
       3699.0419      0.51338827
       3699.8414      0.53090145
       3700.6409      0.51055233
       3701.4404      0.51231947
       3702.2400      0.50520310
       3703.0395      0.50790944
       3703.8390      0.50015958
       3704.6385      0.49625940
       3705.4380      0.52402716
       3706.2376      0.54986719
       3707.0371      0.54201561
       3707.8366      0.54577522
       3708.6361      0.53473419
       3709.4356      0.53957982
       3710.2352      0.57720846
       3711.0347      0.54946085
       3711.8342      0.55793394
       3712.6337      0.59422554
       3713.4332      0.61211275
       3714.2327      0.61385348
       3715.0323      0.55881427
       3715.8318      0.56978452
       3716.6313      0.58959949
       3717.4308      0.57780218
       3718.2303      0.63053117
       3719.0299      0.75898639
       3719.8294      0.85910973
       3720.6289      0.93296404
       3721.4284       1.0519998
       3722.2279       1.1118230
       3723.0275       1.1518082
       3723.8270       1.1164741
       3724.6265       1.0202048
       3725.4260      0.92032952
       3726.2255      0.85702430
       3727.0251      0.70512342
       3727.8246      0.60187946
       3728.6241      0.58827735
       3729.4236      0.53844772
       3730.2231      0.47309246
       3731.0227      0.49265525
       3731.8222      0.51642892
       3732.6217      0.51470338
       3733.4212      0.55756118
       3734.2207      0.59989099
       3735.0202      0.61354275
       3735.8198      0.68030337
       3736.6193      0.67873276
       3737.4188      0.64873337
       3738.2183      0.62017895
       3739.0178      0.62151092
       3739.8174      0.59110583
       3740.6169      0.55483971
       3741.4164      0.53994344
       3742.2159      0.52306093
       3743.0154      0.54216377
       3743.8150      0.50251869
       3744.6145      0.50385866
       3745.4140      0.51072425
       3746.2135      0.53046992
       3747.0130      0.54092404
       3747.8126      0.56243363
       3748.6121      0.59724655
       3749.4116      0.62260925
       3750.2111      0.62793138
       3751.0106      0.65338113
       3751.8102      0.66538712
       3752.6097      0.67653221
       3753.4092      0.68112376
       3754.2087      0.70490044
       3755.0082      0.68551295
       3755.8077      0.68240114
       3756.6073      0.71391694
       3757.4068      0.73246391
       3758.2063      0.71766356
       3759.0058      0.68787758
       3759.8053      0.65491477
       3760.6049      0.61471126
       3761.4044      0.62717144
       3762.2039      0.55066584
       3763.0034      0.54704474
       3763.8029      0.54439122
       3764.6025      0.54379202
       3765.4020      0.54931533
       3766.2015      0.54604777
       3767.0010      0.56583039
       3767.8005      0.57072300
       3768.6001      0.58645049
       3769.3996      0.61679412
       3770.1991      0.72491416
       3770.9986      0.70149314
       3771.7981      0.71722159
       3772.5977      0.75482408
       3773.3972      0.80192704
       3774.1967      0.81049878
       3774.9962      0.83897284
       3775.7957      0.86404567
       3776.5952      0.84146499
       3777.3948      0.80645695
       3778.1943      0.83278467
       3778.9938      0.82932790
       3779.7933      0.81158328
       3780.5928      0.81920594
       3781.3924      0.82317320
       3782.1919      0.74895178
       3782.9914      0.77281360
       3783.7909      0.75548066
       3784.5904      0.71231521
       3785.3900      0.71128342
       3786.1895      0.69325558
       3786.9890      0.63503812
       3787.7885      0.62672313
       3788.5880      0.64862520
       3789.3876      0.61019525
       3790.1871      0.55391417
       3790.9866      0.53182121
       3791.7861      0.52650448
       3792.5856      0.52279282
       3793.3852      0.51715704
       3794.1847      0.58082109
       3794.9842      0.62569021
       3795.7837      0.66964570
       3796.5832      0.69974094
       3797.3827      0.76057010
       3798.1823      0.75471190
       3798.9818      0.77495137
       3799.7813      0.79818402
       3800.5808      0.75804262
       3801.3803      0.81560293
       3802.1799      0.86457662
       3802.9794      0.84724806
       3803.7789      0.86881025
       3804.5784      0.90736912
       3805.3779      0.88207482
       3806.1775      0.86779155
       3806.9770      0.86664445
       3807.7765      0.85255543
       3808.5760      0.87429392
       3809.3755      0.86361160
       3810.1751      0.82922984
       3810.9746      0.80120352
       3811.7741      0.82486967
       3812.5736      0.82560769
       3813.3731      0.79844656
       3814.1727      0.83533159
       3814.9722      0.80582400
       3815.7717      0.79588026
       3816.5712      0.80961792
       3817.3707      0.81390262
       3818.1703      0.78346100
       3818.9698      0.74348776
       3819.7693      0.77288296
       3820.5688      0.74491317
       3821.3683      0.69079852
       3822.1678      0.70490052
       3822.9674      0.64478893
       3823.7669      0.62887122
       3824.5664      0.54492859
       3825.3659      0.50108160
       3826.1654      0.49368383
       3826.9650      0.49592021
       3827.7645      0.48090010
       3828.5640      0.49456473
       3829.3635      0.50272655
       3830.1630      0.46785542
       3830.9626      0.50997171
       3831.7621      0.61085229
       3832.5616      0.64446228
       3833.3611      0.68498345
       3834.1606      0.66933855
       3834.9602      0.69520027
       3835.7597      0.74794357
       3836.5592      0.82330400
       3837.3587      0.82309726
       3838.1582      0.81984042
       3838.9578      0.78530224
       3839.7573      0.79287731
       3840.5568      0.81729858
       3841.3563      0.85485172
       3842.1558      0.85698950
       3842.9553      0.85197630
       3843.7549      0.86062447
       3844.5544      0.91759438
       3845.3539      0.93678038
       3846.1534      0.92985495
       3846.9529      0.93255209
       3847.7525      0.95544982
       3848.5520      0.91529719
       3849.3515      0.93445854
       3850.1510      0.92505244
       3850.9505      0.92786465
       3851.7501      0.92738515
       3852.5496      0.93007495
       3853.3491      0.92998129
       3854.1486      0.91357447
       3854.9481      0.97970748
       3855.7477      0.99821926
       3856.5472      0.95101227
       3857.3467      0.96466815
       3858.1462      0.97980768
       3858.9457      0.93790438
       3859.7453      0.93948142
       3860.5448      0.95338082
       3861.3443      0.96926848
       3862.1438      0.93688618
       3862.9433      0.92479764
       3863.7428      0.90441192
       3864.5424      0.90992974
       3865.3419      0.87853268
       3866.1414      0.85378033
       3866.9409      0.83004984
       3867.7404      0.85814906
       3868.5400      0.83397066
       3869.3395      0.82682994
       3870.1390      0.81956229
       3870.9385      0.82350510
       3871.7380      0.77201788
       3872.5376      0.77212380
       3873.3371      0.74717254
       3874.1366      0.72382639
       3874.9361      0.68228023
       3875.7356      0.66593194
       3876.5352      0.67084274
       3877.3347      0.66375760
       3878.1342      0.61466245
       3878.9337      0.59382993
       3879.7332      0.57681122
       3880.5328      0.59647356
       3881.3323      0.61321953
       3882.1318      0.64550997
       3882.9313      0.64561562
       3883.7308      0.61798249
       3884.5303      0.66222395
       3885.3299      0.66981727
       3886.1294      0.73738949
       3886.9289      0.73157668
       3887.7284      0.77221100
       3888.5279      0.75961898
       3889.3275      0.78386678
       3890.1270      0.83368087
       3890.9265      0.86986880
       3891.7260      0.85907924
       3892.5255      0.85601972
       3893.3251      0.84729986
       3894.1246      0.86285208
       3894.9241      0.86398307
       3895.7236      0.84721725
       3896.5231      0.89038557
       3897.3227      0.89954835
       3898.1222      0.92708026
       3898.9217      0.93333918
       3899.7212      0.91544081
       3900.5207      0.92207361
       3901.3203      0.94747928
       3902.1198      0.95692214
       3902.9193       1.0077486
       3903.7188      0.94038590
       3904.5183      0.90966633
       3905.3178      0.89992781
       3906.1174      0.93099592
       3906.9169      0.94537459
       3907.7164      0.92229558
       3908.5159      0.94059903
       3909.3154      0.91607939
       3910.1150      0.87896052
       3910.9145      0.92131305
       3911.7140      0.92501870
       3912.5135      0.94485942
       3913.3130      0.94400336
       3914.1126      0.87538974
       3914.9121      0.91397434
       3915.7116      0.90785543
       3916.5111      0.85285069
       3917.3106      0.88326268
       3918.1102      0.86404918
       3918.9097      0.82204643
       3919.7092      0.78417213
       3920.5087      0.67686461
       3921.3082      0.63439690
       3922.1078      0.63209295
       3922.9073      0.63371998
       3923.7068      0.63766686
       3924.5063      0.62283946
       3925.3058      0.69521868
       3926.1053      0.76261359
       3926.9049      0.75503919
       3927.7044      0.77820942
       3928.5039      0.80562329
       3929.3034      0.80803891
       3930.1029      0.81284726
       3930.9025      0.83794621
       3931.7020      0.90516959
       3932.5015      0.86278369
       3933.3010      0.83068194
       3934.1005      0.89427270
       3934.9001      0.94439152
       3935.6996      0.88648570
       3936.4991      0.91379172
       3937.2986      0.92547214
       3938.0981      0.90957642
       3938.8977      0.90192878
       3939.6972      0.87402885
       3940.4967      0.91098117
       3941.2962      0.89281472
       3942.0957      0.88564860
       3942.8953      0.85236513
       3943.6948      0.85308886
       3944.4943      0.85783300
       3945.2938      0.87859994
       3946.0933      0.86587838
       3946.8928      0.87195158
       3947.6924      0.85435486
       3948.4919      0.80930873
       3949.2914      0.79824044
       3950.0909      0.76743708
       3950.8904      0.77128102
       3951.6900      0.75896455
       3952.4895      0.67883726
       3953.2890      0.65261998
       3954.0885      0.58830460
       3954.8880      0.60026279
       3955.6876      0.56244103
       3956.4871      0.51985637
       3957.2866      0.51307293
       3958.0861      0.51534262
       3958.8856      0.47424837
       3959.6852      0.52545220
       3960.4847      0.51760059
       3961.2842      0.55499211
       3962.0837      0.57865037
       3962.8832      0.57518511
       3963.6828      0.61284661
       3964.4823      0.69009459
       3965.2818      0.69923068
       3966.0813      0.70833901
       3966.8808      0.75181320
       3967.6804      0.81351775
       3968.4799      0.81819488
       3969.2794      0.81908677
       3970.0789      0.82688944
       3970.8784      0.84800408
       3971.6779      0.89546189
       3972.4775      0.90912213
       3973.2770      0.86261144
       3974.0765      0.85521133
       3974.8760      0.86987237
       3975.6755      0.93961820
       3976.4751      0.93360701
       3977.2746      0.90427155
       3978.0741      0.91764494
       3978.8736      0.92509946
       3979.6731       1.0137765
       3980.4727       1.0114820
       3981.2722      0.97008828
       3982.0717      0.93942019
       3982.8712      0.95021062
       3983.6707      0.99957965
       3984.4703      0.97313321
       3985.2698      0.95511514
       3986.0693      0.98649495
       3986.8688      0.96170980
       3987.6683       1.0044465
       3988.4679       1.0293523
       3989.2674      0.98117290
       3990.0669       1.0411953
       3990.8664      0.99593762
       3991.6659      0.97971646
       3992.4654      0.98164584
       3993.2650      0.97479982
       3994.0645      0.97264599
       3994.8640      0.99143954
       3995.6635      0.96309945
       3996.4630      0.99397620
       3997.2626      0.95402483
       3998.0621       1.0215602
       3998.8616      0.99300047
       3999.6611      0.97644013
       4000.4606      0.98131739
       4001.2602       1.0429866
       4002.0597       1.0150740
       4002.8592      0.99865632
       4003.6587       1.0072696
       4004.4582       1.0675963
       4005.2578       1.0735663
       4006.0573       1.0421980
       4006.8568       1.0510040
       4007.6563       1.0169930
       4008.4558      0.98397966
       4009.2554      0.99194477
       4010.0549       1.0333281
       4010.8544       1.0462339
       4011.6539       1.0379228
       4012.4534      0.97590032
       4013.2529       1.0054443
       4014.0525       1.0288115
       4014.8520       1.0079346
       4015.6515      0.95856808
       4016.4510      0.95419245
       4017.2505      0.96261267
       4018.0501      0.97077146
       4018.8496      0.98897737
       4019.6491       1.0068816
       4020.4486       1.0338538
       4021.2481       1.0022375
       4022.0477      0.99469914
       4022.8472      0.98880575
       4023.6467       1.0403830
       4024.4462       1.0218816
       4025.2457       1.0454985
       4026.0453       1.0909411
       4026.8448       1.0612215
       4027.6443       1.0781970
       4028.4438       1.0569953
       4029.2433       1.0146510
       4030.0429       1.0093583
       4030.8424      0.94598738
       4031.6419      0.97399525
       4032.4414      0.98542456
       4033.2409      0.98098209
       4034.0404      0.97545845
       4034.8400      0.94548280
       4035.6395       1.0357276
       4036.4390       1.0637757
       4037.2385       1.0954195
       4038.0380       1.0228500
       4038.8376       1.0431497
       4039.6371       1.0403084
       4040.4366       1.0165689
       4041.2361       1.0075785
       4042.0356       1.0111750
       4042.8352      0.99481062
       4043.6347       1.0020314
       4044.4342       1.0251771
       4045.2337       1.0160411
       4046.0332       1.0041281
       4046.8328       1.0050855
       4047.6323      0.99998421
       4048.4318       1.0177017
       4049.2313       1.0239827
       4050.0308      0.99250984
       4050.8304      0.99069910
       4051.6299       1.0368929
       4052.4294      0.97290964
       4053.2289      0.97155244
       4054.0284       1.0213891
       4054.8279       1.0460432
       4055.6275      0.99934488
       4056.4270      0.99785645
       4057.2265      0.98322020
       4058.0260      0.97842207
       4058.8255      0.92062170
       4059.6251      0.92647221
       4060.4246      0.91810605
       4061.2241      0.89653021
       4062.0236      0.93892729
       4062.8231      0.95467080
       4063.6227      0.97983914
       4064.4222      0.96142664
       4065.2217      0.91712593
       4066.0212      0.88702442
       4066.8207      0.91175507
       4067.6203      0.95666682
       4068.4198      0.96270388
       4069.2193      0.97145710
       4070.0188      0.93046712
       4070.8183      0.90535591
       4071.6179      0.88225859
       4072.4174      0.86907790
       4073.2169      0.93051023
       4074.0164      0.89651354
       4074.8159      0.86862189
       4075.6154      0.87202925
       4076.4150      0.88307635
       4077.2145      0.85731024
       4078.0140      0.83330831
       4078.8135      0.79484224
       4079.6130      0.83361507
       4080.4126      0.77966377
       4081.2121      0.72623826
       4082.0116      0.71379477
       4082.8111      0.68181501
       4083.6106      0.68877462
       4084.4102      0.67412027
       4085.2097      0.70572515
       4086.0092      0.68878021
       4086.8087      0.66487135
       4087.6082      0.67889095
       4088.4078      0.63619357
       4089.2073      0.63239451
       4090.0068      0.63981853
       4090.8063      0.66505344
       4091.6058      0.60560500
       4092.4054      0.66204740
       4093.2049      0.68545761
       4094.0044      0.70114722
       4094.8039      0.73934292
       4095.6034      0.74320693
       4096.4030      0.77040482
       4097.2025      0.74366267
       4098.0020      0.79311685
       4098.8015      0.80554539
       4099.6010      0.85541598
       4100.4005      0.88717545
       4101.2001      0.79540427
       4101.9996      0.78076462
       4102.7991      0.80221289
       4103.5986      0.85546704
       4104.3981      0.82207279
       4105.1977      0.79756114
       4105.9972      0.81688859
       4106.7967      0.81896359
       4107.5962      0.84854023
       4108.3957      0.88175203
       4109.1953      0.83045833
       4109.9948      0.80137581
       4110.7943      0.81143515
       4111.5938      0.84169076
       4112.3933      0.83846623
       4113.1929      0.81848501
       4113.9924      0.71462822
       4114.7919      0.38194718
       4115.5914     0.086569376
       4116.3909      0.21432754
       4117.1905      0.40627437
       4117.9900      0.71483742
       4118.7895      0.89793074
       4119.5890      0.76381273
       4120.3885       1.0938351
       4121.1880       1.5275638
       4121.9876       1.4863102
       4122.7871       1.3167909
       4123.5866       1.0817153
       4124.3861      0.92929101
       4125.1856      0.83390126
       4125.9852      0.81265087
       4126.7847      0.79469577
       4127.5842      0.73584785
       4128.3837      0.78573373
       4129.1832      0.75653222
       4129.9828      0.73696081
       4130.7823      0.76932849
       4131.5818      0.73084187
       4132.3813      0.78266551
       4133.1808      0.77968240
       4133.9804      0.71784460
       4134.7799      0.70835156
       4135.5794      0.72128996
       4136.3789      0.72749502
       4137.1784      0.72074942
       4137.9780      0.68585540
       4138.7775      0.66917469
       4139.5770      0.67534893
       4140.3765      0.66258107
       4141.1760      0.66569776
       4141.9755      0.67786452
       4142.7751      0.66875670
       4340.8652       1.8104133
       4341.7505       1.4296002
       4342.6358       1.6645379
       4343.5210       1.8382573
       4344.4063       1.6581260
       4345.2916       1.6843159
       4346.1769       1.7788744
       4347.0621       1.6881577
       4347.9474       1.8384007
       4348.8327       1.9127520
       4349.7180       1.9108520
       4350.6032       2.0335420
       4351.4885       1.9984611
       4352.3738       1.9961802
       4353.2591       2.0892432
       4354.1443       2.1592601
       4355.0296       2.2537941
       4355.9149       2.1791273
       4356.8002       2.1856685
       4357.6855       2.2196799
       4358.5707       2.3182232
       4359.4560       2.2939230
       4360.3413       2.3064381
       4361.2266       2.4521006
       4362.1118       2.4287091
       4362.9971       2.3793438
       4363.8824       2.3163098
       4364.7677       2.3454684
       4365.6529       2.3202688
       4366.5382       2.3219335
       4367.4235       2.1917370
       4368.3088       2.2245963
       4369.1940       2.3564903
       4370.0793       2.2495866
       4370.9646       2.2883575
       4371.8499       2.2626754
       4372.7351       2.2433108
       4373.6204       2.2565436
       4374.5057       2.1682425
       4375.3910       2.3470925
       4376.2762       2.3630391
       4377.1615       2.3280986
       4378.0468       2.2108033
       4378.9321       2.2373563
       4379.8173       2.3154124
       4380.7026       2.3725131
       4381.5879       2.2693031
       4382.4732       2.3056264
       4383.3584       2.1772300
       4384.2437       2.1904492
       4385.1290       2.2926559
       4386.0143       2.2404613
       4386.8995       2.2262901
       4387.7848       2.3221782
       4388.6701       2.3310008
       4389.5554       2.2262091
       4390.4406       2.3771538
       4391.3259       2.4060871
       4392.2112       2.2809448
       4393.0965       2.2219973
       4393.9817       2.2579947
       4394.8670       2.2842184
       4395.7523       2.2601592
       4396.6376       2.2316673
       4397.5228       2.3162648
       4398.4081       2.3706398
       4399.2934       2.2957553
       4400.1787       2.1994339
       4401.0639       2.1447565
       4401.9492       2.0880385
       4402.8345       2.0416669
       4403.7198       2.2057063
       4404.6050       2.1905391
       4405.4903       2.2648604
       4406.3756       2.3118333
       4407.2609       2.2046306
       4408.1461       2.3636564
       4409.0314       2.3546846
       4409.9167       2.2331670
       4410.8020       2.1734817
       4411.6872       2.3451261
       4412.5725       2.2719727
       4413.4578       2.1676515
       4414.3431       2.1946569
       4415.2283       2.2239246
       4416.1136       2.2150639
       4416.9989       2.2048640
       4417.8842       2.2452085
       4418.7694       2.3183439
       4419.6547       2.3786149
       4420.5400       2.3380794
       4421.4253       2.1814143
       4422.3105       2.0529882
       4423.1958       2.0639188
       4424.0811       1.9641696
       4424.9664       2.0658289
       4425.8516       2.1887779
       4426.7369       2.0755127
       4427.6222       2.0604456
       4428.5075       2.1330996
       4429.3927       2.0459520
       4430.2780       2.0975317
       4431.1633       2.1302474
       4432.0486       2.1086513
       4432.9339       2.0455822
       4433.8191       2.0958145
       4434.7044       2.1982555
       4435.5897       2.2306722
       4436.4750       2.1279850
       4437.3602       2.0908442
       4438.2455       2.0975359
       4439.1308       2.2410277
       4440.0161       2.0094337
       4440.9013       2.1284247
       4441.7866       2.0988212
       4442.6719       2.1492574
       4443.5572       2.1736630
       4444.4424       2.2601209
       4445.3277       2.1800630
       4446.2130       2.0515879
       4447.0983       2.1589163
       4447.9835       2.2570798
       4448.8688       2.1007652
       4449.7541       2.0223623
       4450.6394       1.9745789
       4451.5246       1.9179731
       4452.4099       1.9156953
       4453.2952       2.0285871
       4454.1805       2.0439844
       4455.0657       2.0589645
       4455.9510       1.9391364
       4456.8363       2.1155347
       4457.7216       2.1764979
       4458.6068       1.9806809
       4459.4921       2.1205410
       4460.3774       2.1498849
       4461.2627       2.0282430
       4462.1479       1.9957023
       4463.0332       1.9720518
       4463.9185       2.0125719
       4464.8038       2.0878995
       4465.6890       2.1851111
       4466.5743       2.0621751
       4467.4596       2.1187114
       4468.3449       2.2908453
       4469.2301       2.2628736
       4470.1154       2.2172838
       4471.0007       2.0237715
       4471.8860       2.0182708
       4472.7712       2.0714408
       4473.6565       2.1192301
       4474.5418       2.1719175
       4475.4271       2.1574785
       4476.3123       2.2069251
       4477.1976       2.2458423
       4478.0829       2.2895152
       4478.9682       2.2635094
       4479.8534       2.3561824
       4480.7387       2.3358265
       4481.6240       2.3120680
       4482.5093       2.3791613
       4483.3945       2.3055561
       4484.2798       2.3078551
       4485.1651       2.1808325
       4486.0504       2.1761402
       4486.9356       2.1699468
       4487.8209       2.2017730
       4488.7062       2.1366246
       4489.5915       2.1234449
       4490.4767       2.2103342
       4491.3620       2.1598564
       4492.2473       2.0910989
       4493.1326       2.2053548
       4494.0178       2.3010983
       4494.9031       2.2138064
       4495.7884       2.2342657
       4496.6737       2.2245255
       4497.5589       2.2328554
       4498.4442       2.1587035
       4499.3295       2.2312730
       4500.2148       2.2284647
       4501.1000       2.2068569
       4501.9853       2.1998464
       4502.8706       2.0827927
       4503.7559       2.1271862
       4504.6411       2.0665532
       4505.5264       2.0746220
       4506.4117       2.1008143
       4507.2970       2.0438833
       4508.1823       2.0535729
       4509.0675       2.1640337
       4509.9528       2.2666265
       4510.8381       2.2036275
       4511.7234       2.2480484
       4512.6086       2.1641046
       4513.4939       2.3586900
       4514.3792       2.3474442
       4515.2645       2.4172559
       4516.1497       2.3789215
       4517.0350       2.2817948
       4517.9203       2.3423079
       4518.8056       2.3156247
       4519.6908       2.2175216
       4520.5761       2.2598992
       4521.4614       2.3149470
       4522.3467       2.2746738
       4523.2319       2.1236326
       4524.1172       2.0558372
       4525.0025       2.0688321
       4525.8878       2.0384068
       4526.7730       1.9757390
       4527.6583       2.0951141
       4528.5436       2.2051274
       4529.4289       2.2883224
       4530.3141       2.1702448
       4531.1994       2.2107721
       4532.0847       2.2954821
       4532.9700       2.3598405
       4533.8552       2.4490886
       4534.7405       2.3237092
       4535.6258       2.2683463
       4536.5111       2.3197598
       4537.3963       2.3438354
       4538.2816       2.3675663
       4539.1669       2.4152219
       4540.0522       2.3932194
       4540.9374       2.4592602
       4541.8227       2.4638411
       4542.7080       2.4991885
       4543.5933       2.4475036
       4544.4785       2.5022239
       4545.3638       2.5329063
       4546.2491       2.4681789
       4547.1344       2.3425052
       4548.0196       2.3696925
       4548.9049       2.4229487
       4549.7902       2.3692757
       4550.6755       2.4670105
       4551.5607       2.4220350
       4552.4460       2.3934868
       4553.3313       2.4931877
       4554.2166       2.4888194
       4555.1018       2.3961772
       4555.9871       2.2492158
       4556.8724       2.2538680
       4557.7577       2.2560015
       4558.6429       2.3214329
       4559.5282       2.3475804
       4560.4135       2.3667669
       4561.2988       2.3335455
       4562.1840       2.4719714
       4563.0693       2.4465593
       4563.9546       2.3638622
       4564.8399       2.2537753
       4565.7251       2.1874840
       4566.6104       2.3125470
       4567.4957       2.3814935
       4568.3810       2.3779732
       4569.2662       2.3579848
       4570.1515       2.5045965
       4571.0368       2.5457156
       4571.9221       2.4992976
       4572.8073       2.4746585
       4573.6926       2.4944927
       4574.5779       2.4245747
       4575.4632       2.4689069
       4576.3484       2.3373275
       4577.2337       2.5271117
       4578.1190       2.4881152
       4579.0043       2.3819262
       4579.8895       2.3053111
       4580.7748       2.5144432
       4581.6601       2.5795221
       4582.5454       2.5044930
       4583.4306       2.4131926
       4584.3159       2.5200573
       4585.2012       2.5929798
       4586.0865       2.7363079
       4586.9718       2.6578971
       4587.8570       2.4969512
       4588.7423       2.4879682
       4589.6276       2.5068440
       4590.5129       2.5178749
       4591.3981       2.3386914
       4592.2834       2.4743694
       4593.1687       2.5959254
       4594.0540       2.4362230
       4594.9392       2.4067000
       4595.8245       2.5216293
       4596.7098       2.6521409
       4597.5951       2.6115294
       4598.4803       2.6350343
       4599.3656       2.6797544
       4600.2509       2.6025537
       4601.1362       2.5082468
       4602.0214       2.7250990
       4602.9067       2.7602378
       4603.7920       2.7139013
       4604.6773       2.6817233
       4605.5625       2.5471723
       4606.4478       2.5559604
       4607.3331       2.6451767
       4608.2184       2.5495050
       4609.1036       2.4968003
       4609.9889       2.3892453
       4610.8742       2.5685454
       4611.7595       2.5899958
       4612.6447       2.4552615
       4613.5300       2.5924695
       4614.4153       2.7211665
       4615.3006       2.8031109
       4616.1858       2.6450732
       4617.0711       2.5761606
       4617.9564       2.6143568
       4618.8417       2.6382804
       4619.7269       2.6255238
       4620.6122       2.4999232
       4621.4975       2.5695716
       4622.3828       2.6411393
       4623.2680       2.6591603
       4624.1533       2.4864513
       4625.0386       2.4917378
       4625.9239       2.5455607
       4626.8091       2.4905330
       4627.6944       2.6085674
       4628.5797       2.5004788
       4629.4650       2.5584343
       4630.3502       2.4900995
       4631.2355       2.4530157
       4632.1208       2.3984871
       4633.0061       2.5536670
       4633.8913       2.4808915
       4634.7766       2.3864233
       4635.6619       2.6077916
       4636.5472       2.7082760
       4637.4324       2.7720636
       4638.3177       2.7738681
       4639.2030       2.7599672
       4640.0883       2.6950908
       4640.9735       2.6117740
       4641.8588       2.5124369
       4642.7441       2.4598924
       4643.6294       2.5638003
       4644.5146       3.0393987
       4645.3999       4.6059638
       4646.2852       5.8533877
       4647.1705       4.7405849
       4648.0557       3.2839182
       4648.9410       3.4700852
       4649.8263       2.9166957
       4650.7116       1.4062378
       4651.5968      0.14172878
       4652.4821      0.63074897
       4653.3674       1.7606246
       4654.2527       2.4505111
       4655.1379       2.4492462
       4656.0232       2.4744950
       4656.9085       2.6035615
       4657.7938       2.4369914
       4658.6790       2.4447916
       4659.5643       2.5424855
       4660.4496       2.5600102
       4661.3349       2.6711784
       4662.2202       2.5997583
       4663.1054       2.6721645
       4663.9907       2.5797783
       4664.8760       2.5086268
       4665.7613       2.5057345
       4666.6465       2.7126681
       4667.5318       2.5529410
       4668.4171       2.5618279
       4669.3024       2.7647819
       4670.1876       2.7795770
       4671.0729       2.7354773
       4671.9582       2.5416708
       4672.8435       2.5649280
       4673.7287       2.4775621
       4674.6140       2.5614764
       4675.4993       2.7245515
       4676.3846       2.6121013
       4677.2698       2.6764319
       4678.1551       2.6732562
       4679.0404       2.7356235
       4679.9257       2.5824340
       4680.8109       2.5881737
       4681.6962       2.5365324
       4682.5815       2.5717446
       4683.4668       2.5458784
       4684.3520       2.4141716
       4685.2373       2.5416675
       4686.1226       2.5619522
       4687.0079       2.6329417
       4687.8931       2.7389735
       4688.7784       2.7755388
       4689.6637       2.8004486
       4690.5490       2.6352461
       4691.4342       2.6952805
       4692.3195       2.8099097
       4693.2048       2.8015436
       4694.0901       3.2679723
       4694.9753       3.5971071
       4695.8606       3.3419510
       4696.7459       3.0610850
       4697.6312       3.2792256
       4698.5164       2.6676516
       4699.4017       2.2393711
       4700.2870       1.9230411
       4701.1723       2.2384381
       4702.0575       2.4561695
       4702.9428       2.6624841
       4703.8281       2.6776751
       4704.7134       2.7904524
       4705.5986       2.6427086
       4706.4839       2.4464544
       4707.3692       2.5638308
       4708.2545       2.5707073
       4709.1397       2.5756134
       4710.0250       2.5765700
       4710.9103       2.4161305
       4711.7956       2.3767516
       4712.6808       2.5373913
       4713.5661       2.6692292
       4714.4514       2.5691567
       4715.3367       2.5877763
       4716.2219       2.6216744
       4717.1072       2.4326039
       4717.9925       2.6093048
       4718.8778       2.6302034
       4719.7630       2.5891564
       4720.6483       2.6460188
       4721.5336       2.5756652
       4722.4189       2.5138952
       4723.3041       2.5341887
       4724.1894       2.4130768
       4725.0747       2.4986946
       4725.9600       2.4831717
       4726.8452       2.5486690
       4727.7305       2.5162079
       4728.6158       2.5008379
       4729.5011       2.4916064
       4730.3863       2.6791010
       4731.2716       2.7233220
       4732.1569       2.7037003
       4733.0422       2.7273948
       4733.9274       2.6756487
       4734.8127       2.6499207
       4735.6980       2.6668544
       4736.5833       2.7347622
       4737.4686       2.6942615
       4738.3538       2.5560743
       4739.2391       2.6044633
       4740.1244       2.6764385
       4741.0097       2.6852865
       4741.8949       2.6748300
       4742.7802       2.7434645
       4743.6655       2.6052301
       4744.5508       2.5666525
       4745.4360       2.5470775
       4746.3213       2.6750039
       4747.2066       2.7194951
       4748.0919       2.7314991
       4748.9771       2.6372180
       4749.8624       2.4803332
       4750.7477       2.4670152
       4751.6330       2.5200130
       4752.5182       2.4919788
       4753.4035       2.5354064
       4754.2888       2.5999743
       4755.1741       2.5755435
       4756.0593       2.6416376
       4756.9446       2.5284633
       4757.8299       2.5724532
       4758.7152       2.6185511
       4759.6004       2.7563070
       4760.4857       2.6631922
       4761.3710       2.5194815
       4762.2563       2.6411708
       4763.1415       2.5880429
       4764.0268       2.6529517
       4764.9121       2.6096947
       4765.7974       2.6006348
       4766.6826       2.5804764
       4767.5679       2.6010241
       4768.4532       2.5453088
       4769.3385       2.5531197
       4770.2237       2.5776007
       4771.1090       2.6588642
       4771.9943       2.5288623
       4772.8796       2.4974229
       4773.7648       2.5925188
       4774.6501       2.6533107
       4775.5354       2.8058822
       4776.4207       2.7566615
       4777.3059       2.6811497
       4778.1912       2.6538037
       4779.0765       2.7364753
       4779.9618       2.5801720
       4780.8470       2.5338956
       4781.7323       2.6529653
       4782.6176       2.6353464
       4783.5029       2.6126318
       4784.3881       2.5576071
       4785.2734       2.6897061
       4786.1587       2.6093526
       4787.0440       2.5592850
       4787.9292       2.4458960
       4788.8145       2.4849067
       4789.6998       2.4962111
       4790.5851       2.5182754
       4791.4703       2.4534835
       4792.3556       2.5841743
       4793.2409       2.6118189
       4794.1262       2.5074891
       4795.0114       2.5931263
       4795.8967       2.5554956
       4796.7820       2.4745628
       4797.6673       2.7371781
       4798.5525       2.8600096
       4799.4378       2.7182915
       4800.3231       2.8518806
       4801.2084       2.8278896
       4802.0936       2.6923654
       4802.9789       2.8072454
       4803.8642       2.5317847
       4804.7495       2.5429083
       4805.6347       2.5720269
       4806.5200       2.6359558
       4807.4053       2.6611766
       4808.2906       2.5195006
       4809.1758       2.5532202
       4810.0611       2.6244599
       4810.9464       2.5325140
       4811.8317       2.4493240
       4812.7170       2.5040424
       4813.6022       2.4472668
       4814.4875       2.3950464
       4815.3728       2.4007665
       4816.2581       2.4401845
       4817.1433       2.5273938
       4818.0286       2.4426180
       4818.9139       2.5140062
       4819.7992       2.5654920
       4820.6844       2.5998661
       4821.5697       2.5624084
       4822.4550       2.5614006
       4823.3403       2.7367177
       4824.2255       2.6306246
       4825.1108       2.6445670
       4825.9961       2.6220856
       4826.8814       2.7071750
       4827.7666       2.7778174
       4828.6519       2.5497917
       4829.5372       2.3583117
       4830.4225       2.5332250
       4831.3077       2.5613595
       4832.1930       2.4177612
       4833.0783       2.2726855
       4833.9636       2.2811716
       4834.8488       2.3009410
       4835.7341       2.4125659
       4836.6194       2.1702886
       4837.5047       2.1023897
       4838.3899       2.1724229
       4839.2752       2.1552253
       4840.1605       2.1609650
       4841.0458       2.2030929
       4841.9310       2.1921744
       4842.8163       2.3121225
       4843.7016       2.8975922
       4844.5869       3.1379123
       4845.4721       3.4378671
       4846.3574       3.7480406
       4847.2427       3.6379161
       4848.1280       3.4292282
       4849.0132       3.1475095
       4849.8985       2.6753094
       4850.7838       2.3631429
       4851.6691       2.1955447
       4852.5543       2.1722294
       4853.4396       2.1700634
       4854.3249       2.0490809
       4855.2102       2.0954016
       4856.0954       2.1665316
       4856.9807       2.1556050
       4857.8660       2.1754570
       4858.7513       2.2767770
       4859.6365       2.3434963
       4860.5218       2.1856783
       4861.4071       2.1820862
       4862.2924       2.2520106
       4863.1776       2.2754154
       4864.0629       2.2811974
       4864.9482       2.4420635
       4865.8335       2.5068961
       4866.7187       2.5476623
       4867.6040       2.4593569
       4868.4893       2.4880326
       4869.3746       2.4861719
       4870.2598       2.4051387
       4871.1451       2.4356012
       4872.0304       2.4612287
       4872.9157       2.3697018
       4873.8009       2.4001365
       4874.6862       2.2991403
       4875.5715       2.2631787
       4876.4568       2.2603559
       4877.3420       2.2406850
       4878.2273       2.2083302
       4879.1126       2.3774360
       4879.9979       2.5197737
       4880.8831       2.4842911
       4881.7684       2.5128560
       4882.6537       2.6040515
       4883.5390       2.5915463
       4884.4242       2.7055612
       4885.3095       2.6681203
       4886.1948       2.7044835
       4887.0801       2.5781575
       4887.9653       2.5733341
       4888.8506       2.6862719
       4889.7359       2.6629279
       4890.6212       2.4900796
       4891.5065       2.5211412
       4892.3917       2.5639260
       4893.2770       2.5688643
       4894.1623       2.5387881
       4895.0476       2.5323204
       4895.9328       2.4463010
       4896.8181       2.4508445
       4897.7034       2.4943756
       4898.5887       2.5868489
       4899.4739       2.6598728
       4900.3592       2.6019018
       4901.2445       2.6902050
       4902.1298       2.5710229
       4903.0150       2.6630078
       4903.9003       2.5665979
       4904.7856       2.4453009
       4905.6709       2.4840648
       4906.5561       2.3811210
       4907.4414       2.3992564
       4908.3267       2.3538240
       4909.2120       2.3535920
       4910.0972       2.3935028
       4910.9825       2.4498460
       4911.8678       2.5961727
       4912.7531       2.5708276
       4913.6383       2.4579239
       4914.5236       2.5184470
       4915.4089       2.6125932
       4916.2942       2.4688083
       4917.1794       2.7243037
       4918.0647       2.8011252
       4918.9500       2.6723653
       4919.8353       2.6865261
       4920.7205       2.5444755
       4921.6058       2.5642501
       4922.4911       2.6030767
       4923.3764       2.5736525
       4924.2616       2.6015275
       4925.1469       2.5985169
       4926.0322       2.4620431
       4926.9175       2.4902335
       4927.8027       2.5145301
       4928.6880       2.4972676
       4929.5733       2.6271957
       4930.4586       2.5647514
       4931.3438       2.5669515
       4932.2291       2.6881478
       4933.1144       2.5609624
       4933.9997       2.6131852
       4934.8849       2.6459809
       4935.7702       2.7216320
       4936.6555       2.7139804
       4937.5408       2.7008444
       4938.4260       2.6888209
       4939.3113       2.6935437
       4940.1966       2.7518006
       4941.0819       2.8047522
       4941.9671       2.7899124
       4942.8524       2.7309709
       4943.7377       2.6534161
       4944.6230       2.6770371
       4945.5082       2.6872670
       4946.3935       2.7720626
       4947.2788       2.8377539
       4948.1641       2.8053484
       4949.0493       2.7813875
       4949.9346       2.7929215
       4950.8199       2.8042938
       4951.7052       2.7762766
       4952.5904       2.6096092
       4953.4757       2.4740406
       4954.3610       2.4784011
       4955.2463       2.5746252
       4956.1315       2.5478876
       4957.0168       2.4901901
       4957.9021       2.5605482
       4958.7874       2.6279197
       4959.6726       2.5563045
       4960.5579       2.6553557
       4961.4432       2.6708168
       4962.3285       2.6041877
       4963.2137       2.6457504
       4964.0990       2.7303004
       4964.9843       2.7462545
       4965.8696       2.6812751
       4966.7549       2.7428667
       4967.6401       2.5717825
       4968.5254       2.4488399
       4969.4107       2.4265792
       4970.2960       2.1979835
       4971.1812       2.3676479
       4972.0665       2.5383425
       4972.9518       2.4174896
       4973.8371       2.4262362
       4974.7223       2.5529878
       4975.6076       2.5935838
       4976.4929       2.4645706
       4977.3782       2.4718938
       4978.2634       2.6200628
       4979.1487       2.6511678
       4980.0340       2.6396716
       4980.9193       2.7119994
       4981.8045       2.7403859
       4982.6898       2.6385849
       4983.5751       2.5446561
       4984.4604       2.7080849
       4985.3456       2.6562489
       4986.2309       2.5697538
       4987.1162       2.7193640
       4988.0015       2.7759697
       4988.8867       2.6282260
       4989.7720       2.6503778
       4990.6573       2.6229379
       4991.5426       2.6325201
       4992.4278       2.8257476
       4993.3131       2.9370322
       4994.1984       2.9058059
       4995.0837       2.9754454
       4995.9689       3.0210299
       4996.8542       3.0216422
       4997.7395       3.0897120
       4998.6248       2.8145687
       4999.5100       2.8308603
       5000.3953       2.7090851
       5001.2806       2.6359483
       5002.1659       2.6776771
       5003.0511       2.4220143
       5003.9364       2.3878231
       5004.8217       2.5197139
       5005.7070       2.5906235
       5006.5922       2.4721538
       5007.4775       2.5046716
       5008.3628       2.5350913
       5009.2481       2.4459290
       5010.1333       2.6309689
       5011.0186       2.5544449
       5011.9039       2.4261210
       5012.7892       2.5023037
       5013.6744       2.5741282
       5014.5597       2.5831612
       5015.4450       2.7171862
       5016.3303       2.6084573
       5017.2155       2.5666605
       5018.1008       2.5834705
       5018.9861       2.7070642
       5019.8714       2.5880269
       5020.7566       2.7594085
       5021.6419       2.7578444
       5022.5272       2.8477320
       5023.4125       2.7720600
       5024.2977       2.5263574
       5025.1830       2.6450101
       5026.0683       2.6108780
       5026.9536       2.6524880
       5027.8388       2.6624644
       5028.7241       2.6078719
       5029.6094       2.5523631
       5030.4947       2.5022820
       5031.3799       2.4488128
       5032.2652       2.5123534
       5033.1505       2.5681262
       5034.0358       2.6376348
       5034.9210       2.6164294
       5035.8063       2.7116792
       5036.6916       2.7086025
       5037.5769       2.6227527
       5038.4621       2.6736016
       5039.3474       2.5294400
       5040.2327       2.5781188
       5041.1180       2.6199145
       5042.0033       2.6332860
       5042.8885       2.6350266
       5043.7738       2.5971861
       5044.6591       2.6709192
       5045.5444       2.6935267
       5046.4296       2.6714805
       5047.3149       2.6780329
       5048.2002       2.7781945
       5049.0855       2.7623652
       5049.9707       2.9016020
       5050.8560       3.0466386
       5051.7413       2.9478631
       5052.6266       3.0131195
       5053.5118       2.8619195
       5054.3971       2.9391680
       5055.2824       2.8306985
       5056.1677       2.6268249
       5057.0529       2.8440419
       5057.9382       2.8174834
       5058.8235       2.6457223
       5059.7088       2.4327881
       5060.5940       2.5083119
       5061.4793       2.4800347
       5062.3646       2.4603281
       5063.2499       2.5740754
       5064.1351       2.6549580
       5065.0204       2.6348577
       5065.9057       2.6831774
       5066.7910       2.6444378
       5067.6762       2.6998856
       5068.5615       2.6349131
       5069.4468       2.7244919
       5070.3321       2.5865270
       5071.2173       2.4915306
       5072.1026       2.5743225
       5072.9879       2.5190019
       5073.8732       2.6076878
       5074.7584       2.6906719
       5075.6437       2.9407194
       5076.5290       3.0653322
       5077.4143       2.9039260
       5078.2995       3.0178058
       5079.1848       2.7898717
       5080.0701       2.6317497
       5080.9554       2.3857882
       5081.8406       2.1290571
       5082.7259       2.0392237
       5083.6112       1.9399146
       5084.4965       2.0320254
       5085.3817       1.9632316
       5086.2670       2.1692919
       5087.1523       2.1041219
       5088.0376       2.1967469
       5088.9228       2.2792924
       5089.8081       2.4005999
       5090.6934       2.4487311
       5091.5787       2.5342790
       5092.4639       2.5803769
       5093.3492       2.5591429
       5094.2345       2.5792581
       5095.1198       2.5722210
       5096.0050       2.6579501
       5096.8903       2.5816166
       5097.7756       2.4065515
       5098.6609       2.3226489
       5099.5461       2.4033818
       5100.4314       2.4086482
       5101.3167       2.3431496
       5102.2020       2.3564050
       5103.0872       2.4575943
       5103.9725       2.5239653
       5104.8578       2.3682972
       5105.7431       2.3582441
       5106.6283       2.6456058
       5107.5136       2.6380847
       5108.3989       2.6274012
       5109.2842       2.7449988
       5110.1694       2.6531706
       5111.0547       2.6421301
       5111.9400       2.6665898
       5112.8253       2.6409771
       5113.7105       2.6979350
       5114.5958       2.6413571
       5115.4811       2.5430671
       5116.3664       2.5917669
       5117.2517       2.5628390
       5118.1369       2.5624650
       5119.0222       2.5268706
       5119.9075       2.7132803
       5120.7928       2.7845594
       5121.6780       2.7818726
       5122.5633       2.7575118
       5123.4486       2.7758648
       5124.3339       2.9863365
       5125.2191       2.6321022
       5126.1044       2.4083178
       5126.9897       2.7149689
       5127.8750       2.8557814
       5128.7602       2.7915156
       5129.6455       2.5960500
       5130.5308       2.5522726
       5131.4161       2.6053663
       5132.3013       2.6857520
       5133.1866       2.6838610
       5134.0719       2.7818389
       5134.9572       2.6471641
       5135.8424       2.5204214
       5136.7277       2.5882371
       5137.6130       2.7939671
       5138.4983       2.5062844
       5139.3835       2.4940887
       5140.2688       2.7123715
       5141.1541       2.7357337
       5142.0394       2.8049721
       5142.9246       2.8496758
       5143.8099       2.8952364
       5144.6952       2.8280504
       5145.5805       2.7440982
       5146.4657       2.7253486
       5147.3510       2.7008441
       5148.2363       2.6596591
       5149.1216       2.6842912
       5150.0068       2.6833591
       5150.8921       2.7160981
       5151.7774       2.7233899
       5152.6627       2.6465979
       5153.5479       2.6486939
       5154.4332       2.6806843
       5155.3185       2.7204780
       5156.2038       2.7832349
       5157.0890       2.6876823
       5157.9743       2.7099894
       5158.8596       2.6658841
       5159.7449       2.5960603
       5160.6301       2.5763113
       5161.5154       2.5852542
       5162.4007       2.6543053
       5163.2860       2.7069575
       5164.1712       2.5798028
       5165.0565       2.5873356
       5165.9418       2.8248332
       5166.8271       2.7595667
       5167.7123       2.7132935
       5168.5976       2.6983065
       5169.4829       2.8232151
       5170.3682       2.8429492
       5171.2534       2.8623366
       5172.1387       2.7240780
       5173.0240       2.7714583
       5173.9093       2.7623236
       5174.7945       2.6045015
       5175.6798       2.6105911
       5176.5651       2.6169079
       5177.4504       2.6712168
       5178.3356       2.6701869
       5179.2209       2.6244227
       5180.1062       2.7066939
       5180.9915       2.6471775
       5181.8767       2.7149259
       5182.7620       2.7215561
       5183.6473       2.7223512
       5184.5326       2.8842418
       5185.4178       2.7640489
       5186.3031       2.9628852
       5187.1884       2.8311832
       5188.0737       2.7282649
       5188.9589       2.9976844
       5189.8442       3.1146186
       5190.7295       3.1398698
       5191.6148       3.1904772
       5192.5000       3.1467644
       5193.3853       3.0957334
       5194.2706       3.1078584
       5195.1559       3.0678470
       5196.0412       2.9799525
       5196.9264       2.8450580
       5197.8117       2.8145532
       5198.6970       2.6684385
       5199.5823       2.7151290
       5200.4675       2.6994684
       5201.3528       2.6204553
       5202.2381       2.4689300
       5203.1234       2.5564849
       5204.0086       2.7114574
       5204.8939       2.7659092
       5205.7792       2.7076171
       5206.6645       2.7625724
       5207.5497       2.8165309
       5208.4350       2.7645090
       5209.3203       2.8333107
       5210.2056       2.8284374
       5211.0908       2.7764015
       5211.9761       2.7860019
       5212.8614       2.8733736
       5213.7467       2.9381018
       5214.6319       2.8825122
       5215.5172       2.8731153
       5216.4025       2.9228978
       5217.2878       2.9900301
       5218.1730       2.8310989
       5219.0583       2.7532804
       5219.9436       2.7748939
       5220.8289       2.7991629
       5221.7141       2.7159635
       5222.5994       2.6979678
       5223.4847       2.7112417
       5224.3700       2.7931177
       5225.2552       2.8386131
       5226.1405       2.7397064
       5227.0258       2.7161747
       5227.9111       2.8021870
       5228.7963       2.7297503
       5229.6816       2.8099531
       5230.5669       2.8921493
       5231.4522       2.8203034
       5232.3374       2.8196672
       5233.2227       2.8896093
       5234.1080       2.8197478
       5234.9933       2.8725349
       5235.8785       2.8866564
       5236.7638       2.8963941
       5237.6491       3.0487219
       5238.5344       2.9360965
       5239.4196       2.9661461
       5240.3049       3.0672560
       5241.1902       3.0894085
       5242.0755       2.9567263
       5242.9607       2.9234676
       5243.8460       2.9570633
       5244.7313       2.9626245
       5245.6166       2.8681157
       5246.5018       2.9021550
       5247.3871       2.9068075
       5248.2724       2.8298932
       5249.1577       2.9277297
       5250.0429       2.9693545
       5250.9282       2.9756804
       5251.8135       2.8557598
       5252.6988       2.9357469
       5253.5840       2.9589398
       5254.4693       3.0760903
       5255.3546       3.0591871
       5256.2399       3.0283701
       5257.1251       2.9057763
       5258.0104       2.8902875
       5258.8957       2.6584580
       5259.7810       2.8001390
       5260.6662       2.7672099
       5261.5515       2.7034971
       5262.4368       2.5629920
       5263.3221       2.4915687
       5264.2073       2.6995544
       5265.0926       2.8149826
       5265.9779       2.7844019
       5266.8632       2.7347799
       5267.7484       2.6499448
       5268.6337       2.7375274
       5269.5190       2.7221361
       5270.4043       2.7494801
       5271.2896       2.8291981
       5272.1748       2.8759089
       5273.0601       2.9435993
       5273.9454       2.8996333
       5274.8307       2.8970260
       5275.7159       3.0122856
       5276.6012       2.9562964
       5277.4865       3.0542673
       5278.3718       2.9565345
       5279.2570       2.9070465
       5280.1423       2.8880831
       5281.0276       2.8701384
       5281.9129       3.1030884
       5282.7981       3.0652495
       5283.6834       3.0499007
       5284.5687       3.1256941
       5285.4540       3.1910226
       5286.3392       3.0698773
       5287.2245       3.0160805
       5288.1098       3.1270803
       5288.9951       3.0739151
       5289.8803       2.9068258
       5290.7656       2.9005129
       5291.6509       3.1296709
       5292.5362       2.9748505
       5293.4214       2.9532871
       5294.3067       2.9712382
       5295.1920       3.0912577
       5296.0773       3.0365375
       5296.9625       2.9675651
       5297.8478       2.9931117
       5298.7331       3.0398938
       5299.6184       3.1047980
       5300.5036       3.0788590
       5301.3889       2.9929633
       5302.2742       3.1231601
       5303.1595       3.1257035
       5304.0447       3.0266956
       5304.9300       3.1754314
       5305.8153       3.0651750
       5306.7006       3.1401850
       5307.5858       3.2616839
       5308.4711       3.1656040
       5309.3564       3.0796831
       5310.2417       3.0558680
       5311.1269       3.0425386
       5312.0122       2.9423755
       5312.8975       2.9437082
       5313.7828       2.9574883
       5314.6680       2.7618262
       5315.5533       2.7369554
       5316.4386       2.7695224
       5317.3239       2.9383331
       5318.2091       3.0292621
       5319.0944       3.0235708
       5319.9797       2.9791605
       5320.8650       2.8307360
       5321.7502       2.9063187
       5322.6355       2.8106484
       5323.5208       2.7577837
       5324.4061       2.7644414
       5325.2913       2.6983249
       5326.1766       2.8251466
       5327.0619       2.8993679
       5327.9472       2.8178201
       5328.8324       2.8576571
       5329.7177       2.9103437
       5330.6030       2.8757536
       5331.4883       2.8688622
       5332.3735       2.9453860
       5333.2588       2.9216447
       5334.1441       2.9332918
       5335.0294       2.9410690
       5335.9146       2.8291337
       5336.7999       2.8780327
       5337.6852       2.9790031
       5338.5705       2.9202807
       5339.4557       2.8026595
       5340.3410       3.0192172
       5341.2263       3.0069714
       5342.1116       3.0313544
       5342.9968       3.0606584
       5343.8821       3.0174025
       5344.7674       3.0987923
       5345.6527       3.0697415
       5346.5380       3.1051776
       5347.4232       3.1044181
       5348.3085       3.0133271
       5349.1938       3.1218020
       5350.0791       3.0790087
       5350.9643       3.1007397
       5351.8496       3.1108372
       5352.7349       3.1605725
       5353.6202       3.2037043
       5354.5054       3.2285091
       5355.3907       3.1176301
       5356.2760       3.1572274
       5357.1613       3.1987100
       5358.0465       3.1290699
       5358.9318       3.2513225
       5359.8171       3.4474059
       5360.7024       3.5197711
       5361.5876       3.5235265
       5362.4729       3.3619279
       5363.3582       3.2417246
       5364.2435       3.1903967
       5365.1287       3.0904211
       5366.0140       3.1063691
       5366.8993       2.5505180
       5367.7846       3.1160383
       5368.6698       3.1892525
       5369.5551       2.7930542
       5370.4404       3.0598255
       5371.3257       2.9624825
       5372.2109       2.9872599
       5373.0962       3.3428160
       5373.9815       3.2215687
       5374.8668       3.1581916
       5375.7520       3.0376120
       5376.6373       3.0469329
       5377.5226       3.1330237
       5378.4079       3.0463874
       5379.2931       3.1828982
       5380.1784       3.0520520
       5381.0637       3.0070380
       5381.9490       3.0857844
       5382.8342       2.9540787
       5383.7195       3.1245726
       5384.6048       2.9957481
       5385.4901       3.0968466
       5386.3753       3.4586096
       5387.2606       3.6465754
       5388.1459       3.5998687
       5389.0312       3.4331214
       5389.9164       3.1729882
       5390.8017       3.0823456
       5391.6870       3.1781612
       5392.5723       2.7327484
       5393.4575       2.5125590
       5394.3428       2.9045603
       5395.2281       2.8059958
       5396.1134       3.0466774
       5396.9986       3.1190554
       5397.8839       3.1033800
       5398.7692       2.7973757
       5399.6545       2.8053017
       5400.5397       2.9746860
       5401.4250       2.9065776
       5402.3103       2.9380370
       5403.1956       3.0304231
       5404.0808       2.9654212
       5404.9661       2.8077235
       5405.8514       3.2371592
       5406.7367       3.1421952
       5407.6219       3.1790173
       5408.5072       3.1755135
       5409.3925       3.2680111
       5410.2778       3.2893959
       5411.1630       3.5601769
       5412.0483       3.3266371
       5412.9336       3.3112215
       5413.8189       3.2314102
       5414.7041       3.4265729
       5415.5894       3.2843456
       5416.4747       3.1463382
       5417.3600       3.4664041
       5418.2452       3.3851537
       5419.1305       3.3883346
       5420.0158       3.1725328
       5420.9011       3.1836060
       5421.7863       3.1961574
       5422.6716       3.0065270
       5423.5569       2.7666450
       5424.4422       3.0078968
       5425.3275       3.1929265
       5426.2127       3.2113906
       5427.0980       3.1710879
       5427.9833       3.3093180
       5428.8686       3.1372137
       5429.7538       3.1006957
       5430.6391       3.4223083
       5431.5244       3.1858016
       5432.4097       2.9448858
       5433.2949       2.9750852
       5434.1802       3.1981089
       5435.0655       3.2455728
       5435.9508       3.4814951
       5436.8360       3.8330605
       5437.7213       3.6642832
       5438.6066       3.6073130
       5439.4919       3.6250834
       5440.3771       3.3810452
       5441.2624       2.9010022
       5442.1477       2.8972893
       5443.0330       3.1345226
       5443.9182       3.1196664
       5444.8035       3.1321154
       5445.6888       3.0457035
       5446.5741       3.1670848
       5447.4593       3.1453274
       5448.3446       3.1944305
       5449.2299       3.2695887
       5450.1152       3.3828191
       5451.0004       3.5685741
       5451.8857       3.4867731
       5452.7710       3.6670798
       5453.6563       3.5889056
       5454.5415       3.3663289
       5455.4268       3.1362290
       5456.3121       3.3462093
       5457.1974       3.4141943
       5458.0826       3.6719854
       5458.9679       3.4705176
       5459.8532       3.2276319
       5460.7385       3.2978008
       5461.6237       3.1449171
       5462.5090       2.8674101
       5463.3943       2.8522473
       5464.2796       3.1323334
       5465.1648       3.1042644
       5466.0501       3.2202689
       5466.9354       3.3550886
       5467.8207       3.2025196
       5468.7059       3.2347150
       5469.5912       3.2548120
       5470.4765       3.0379603
       5471.3618       3.3174919
       5472.2470       3.0716892
       5473.1323       3.0985501
       5474.0176       3.1780457
       5474.9029       3.2052828
       5475.7881       3.2271777
       5476.6734       3.2216145
       5477.5587       3.2452379
       5478.4440       3.2157307
       5479.3292       3.2947834
       5480.2145       3.3060293
       5481.0998       3.2024905
       5481.9851       3.4763247
       5482.8703       3.4672094
       5483.7556       3.3640805
       5484.6409       3.4732044
       5485.5262       3.1184852
       5486.4114       3.3242055
       5487.2967       3.1298741
       5488.1820       3.1710388
       5489.0673       3.1066211
       5489.9525       3.4139658
       5490.8378       3.4042632
       5491.7231       3.3244338
       5492.6084       3.3886790
       5493.4936       3.3086606
       5494.3789       3.2789791
       5495.2642       3.3172586
       5496.1495       3.2847087
       5497.0347       3.2807006
       5497.9200       3.3077172
       5498.8053       3.2458299
       5499.6906       3.3928459
       5500.5759       3.3323452
       5501.4611       3.2844564
       5502.3464       3.3230467
       5503.2317       3.4215423
       5504.1170       3.3648991
       5505.0022       3.2990649
       5505.8875       3.3830024
       5506.7728       3.4290744
       5507.6581       3.3576750
       5508.5433       3.3455635
       5509.4286       3.3684865
       5510.3139       3.3585942
       5511.1992       3.3760377
       5512.0844       3.6014487
       5512.9697       3.5024472
       5513.8550       3.2597629
       5514.7403       3.2505882
       5515.6255       3.4201937
       5516.5108       3.2780391
       5517.3961       3.3144127
       5518.2814       3.3691275
       5519.1666       3.3575717
       5520.0519       3.3863230
       5520.9372       3.3094409
       5521.8225       3.2762136
       5522.7077       3.3384655
       5523.5930       3.2870590
       5524.4783       3.2280000
       5525.3636       3.2839419
       5526.2488       3.3239248
       5527.1341       3.2481839
       5528.0194       3.1412026
       5528.9047       3.1288170
       5529.7899       3.2492841
       5530.6752       3.4432214
       5531.5605       3.2650200
       5532.4458       3.5029363
       5533.3310       3.3475511
       5534.2163       3.4781039
       5535.1016       3.3872354
       5535.9869       3.4181431
       5536.8721       3.3909013
       5537.7574       3.3993782
       5538.6427       3.4625844
       5539.5280       3.4209931
       5540.4132       3.7468424
       5541.2985       3.4858341
       5542.1838       3.4798340
       5543.0691       3.7115419
       5543.9543       3.5962523
       5544.8396       3.5888975
       5545.7249       3.3520243
       5546.6102       3.4778632
       5547.4954       3.2350216
       5548.3807       3.5206519
       5549.2660       3.5549604
       5550.1513       3.3695625
       5551.0365       3.6849347
       5551.9218       3.5887083
       5552.8071       3.3708123
       5553.6924       3.3246835
       5554.5776       3.3946521
       5555.4629       3.1663303
       5556.3482       3.3637326
       5557.2335       3.3099495
       5558.1187       3.5720884
       5559.0040       3.4677976
       5559.8893       3.4294081
       5560.7746       3.3604935
       5561.6598       3.4070596
       5562.5451       3.4129422
       5563.4304       3.3094453
       5564.3157       3.1548203
       5565.2009       3.3790869
       5566.0862       3.3754426
       5566.9715       3.4891332
       5567.8568       3.3075230
       5568.7420       3.2946018
       5569.6273       3.4101138
       5570.5126       3.3635017
       5571.3979       3.3024760
       5572.2831       3.5943625
       5573.1684       3.8334150
       5574.0537       3.7961013
       5574.9390       3.3161843
       5575.8243       3.3535325
       5576.7095       3.7320031
       5577.5948       3.3874307
       5578.4801       3.4114814
       5579.3654       3.7257522
       5580.2506       3.4015350
       5581.1359       3.4910878
       5582.0212       3.6371548
       5582.9065       3.6469772
       5583.7917       3.5158612
       5584.6770       3.4626479
       5585.5623       3.3828960
       5586.4476       3.5332274
       5587.3328       3.1672476
       5588.2181       3.2115652
       5589.1034       3.2018575
       5589.9887       3.2704194
       5590.8739       3.1247554
       5591.7592       3.3571255
       5592.6445       3.3542348
       5593.5298       3.4180605
       5594.4150       3.3676206
       5595.3003       3.3483763
       5596.1856       3.3762104
       5597.0709       3.4562249
       5597.9561       3.4314708
       5598.8414       3.5290113
       5599.7267       3.4029356
       5600.6120       3.4745865
       5601.4972       3.4816168
       5602.3825       3.5420422
       5603.2678       3.4762853
       5604.1531       3.5441328
       5605.0383       3.4947736
       5605.9236       3.6789258
       5606.8089       3.6256156
       5607.6942       3.5079946
       5608.5794       3.6660441
       5609.4647       3.8941696
       5610.3500       3.8133446
       5611.2353       3.5308878
       5612.1205       3.4551107
       5613.0058       3.6236209
       5613.8911       3.4032891
       5614.7764       3.2431264
       5615.6616       3.3647378
       5616.5469       3.5697393
       5617.4322       3.3372372
       5618.3175       3.4468471
       5619.2027       3.5028160
       5620.0880       3.5612963
       5620.9733       3.4223285
       5621.8586       3.5295632
       5622.7438       3.5027263
       5623.6291       3.3587952
       5624.5144       3.4065246
       5625.3997       3.2811311
       5626.2849       3.1095297
       5627.1702       2.9847149
       5628.0555       2.7840397
       5628.9408       2.7581299
       5629.8260       2.3212271
       5630.7113       1.8642461
       5631.5966       1.7368370
       5632.4819       1.4864698
       5633.3671       1.2703631
       5634.2524             NaN
       5635.1377             NaN
       5636.0230             NaN
       5636.9082             NaN
       5637.7935             NaN
       5638.6788             NaN
       5639.5641             NaN
       5640.4493             NaN
       5641.3346             NaN
       5642.2199             NaN
       5643.1052             NaN
       5643.9904             NaN
       5644.8757             NaN
       5645.7610             NaN
       5646.6463             NaN
       5647.5315             NaN
       5648.4168             NaN
       5649.3021             NaN
       5650.1874             NaN
       5651.0727             NaN
       5651.9579             NaN
       5652.8432             NaN
       5653.7285             NaN
       5654.6138             NaN
       5655.4990             NaN
       5656.3843             NaN
       5657.2696             NaN
       5658.1549             NaN
       5659.0401             NaN
       5659.9254             NaN
       5660.8107             NaN
       5661.6960             NaN
       5662.5812             NaN
       5663.4665             NaN
       5664.3518             NaN
       5665.2371             NaN
       5666.1223             NaN
       5667.0076             NaN
       5667.8929             NaN
       5668.7782             NaN
       5669.6634             NaN
       5670.5487             NaN
       5671.4340             NaN
       5672.3193             NaN
       5673.2045             NaN
       5674.0898             NaN
       5674.9751             NaN
       5675.8604             NaN
       5676.7456             NaN
       5677.6309             NaN
       5678.5162             NaN
       5679.4015             NaN
       5680.2867             NaN
       5681.1720             NaN
       5682.0573             NaN
       5682.9426             NaN
       5683.8278             NaN
       5684.7131             NaN
       5685.5984             NaN
       5686.4837             NaN
       5687.3689             NaN
       5688.2542             NaN
       5689.1395             NaN
       5690.0248             NaN
       5690.9100             NaN
       5691.7953             NaN
       5692.6806             NaN
       5693.5659             NaN
       5694.4511             NaN
       5695.3364             NaN
       5696.2217             NaN
       5697.1070             NaN
       5697.9922             NaN
       5698.8775             NaN
       5699.7628             NaN
       5700.6481             NaN
       5701.5333             NaN
       5702.4186             NaN
       5703.3039             NaN
       5704.1892             NaN
       5705.0744             NaN
       5705.9597             NaN
       5706.8450             NaN
       5707.7303             NaN
       5708.6155             NaN
       5709.5008             NaN
       5710.3861             NaN
       5711.2714             NaN
       5712.1566       3.4300815
       5713.0419       3.4158728
       5713.9272       3.9413797
       5714.8125       3.6463892
       5715.6977       4.0871581
       5716.5830       4.2798926
       5717.4683       3.9326842
       5718.3536       3.7919499
       5719.2388       3.2224915
       5720.1241       3.2601022
       5721.0094       3.2840809
       5721.8947       3.2426165
       5722.7799       3.2855318
       5723.6652       3.1032828
       5724.5505       3.5521388
       5725.4358       3.6507874
       5726.3210       3.5126294
       5727.2063       3.5119885
       5728.0916       3.6183914
       5728.9769       3.6172854
       5729.8622       3.5542050
       5730.7474       3.4344168
       5731.6327       3.4243368
       5732.5180       3.5605419
       5733.4033       3.4799261
       5734.2885       3.4492609
       5735.1738       3.6105275
       5736.0591       3.5362541
       5736.9444       3.6179978
       5737.8296       3.5160288
       5738.7149       3.6111781
       5739.6002       3.6347931
       5740.4855       3.5745390
       5741.3707       3.6419099
       5742.2560       3.8681295
       5743.1413       4.6435747
       5744.0266       4.2130560
       5744.9118       3.5730431
       5745.7971       3.6050540
       5746.6824       3.3949866
       5747.5677       2.4544625
       5748.4529       3.1725754
       5749.3382       3.5388102
       5750.2235       3.3682091
       5751.1088       3.2012433
       5751.9940       3.6056090
       5752.8793       3.2563978
       5753.7646       3.2159132
       5754.6499       3.6873275
       5755.5351       3.4608821
       5756.4204       3.5341258
       5757.3057       3.6052628
       5758.1910       3.5162529
       5759.0762       3.3594297
       5759.9615       3.7297802
       5760.8468       3.5386650
       5761.7321       3.6961099
       5762.6173       3.6275407
       5763.5026       3.5309036
       5764.3879       3.7511049
       5765.2732       3.7145784
       5766.1584       3.7218204
       5767.0437       3.6108589
       5767.9290       3.5671927
       5768.8143       3.6941786
       5769.6995       3.4473627
       5770.5848       3.4287675
       5771.4701       3.4983701
       5772.3554       3.5612628
       5773.2406       3.6473044
       5774.1259       3.8644634
       5775.0112       3.9391804
       5775.8965       4.0638219
       5776.7817       3.8598267
       5777.6670       3.2463546
       5778.5523       3.2540948
       5779.4376       3.2976417
       5780.3228       3.0449118
       5781.2081       3.1899980
       5782.0934       3.2418092
       5782.9787       3.3406982
       5783.8639       3.3201302
       5784.7492       3.3861447
       5785.6345       3.5368967
       5786.5198       3.4432470
       5787.4050       3.1395568
       5788.2903       2.9245155
       5789.1756       3.0415151
       5790.0609       3.3048778
       5790.9461       3.3954999
       5791.8314       3.3739589
       5792.7167       3.4584625
       5793.6020       3.6745545
       5794.4872       3.9190833
       5795.3725       4.2102630
       5796.2578       5.1979460
       5797.1431       4.3884451
       5798.0283       4.3234953
       5798.9136       3.7877083
       5799.7989       3.1936662
       5800.6842       3.0887145
       5801.5694       3.0120048
       5802.4547       3.3107868
       5803.3400       3.5782121
       5804.2253       3.4770870
       5805.1106       3.5153047
       5805.9958       3.6338893
       5806.8811       3.6459659
       5807.7664       3.5623340
       5808.6517       3.5974555
       5809.5369       3.6450310
       5810.4222       3.6609341
       5811.3075       3.6199063
       5812.1928       3.8928359
       5813.0780       3.8384645
       5813.9633       3.7208344
       5814.8486       3.5234792
       5815.7339       3.4873150
       5816.6191       3.6196669
       5817.5044       3.8064169
       5818.3897       3.9868807
       5819.2750       4.3270418
       5820.1602       4.0916879
       5821.0455       4.1355308
       5821.9308       3.9672484
       5822.8161       3.7831467
       5823.7013       3.6951649
       5824.5866       3.5978483
       5825.4719       3.3856524
       5826.3572       3.3759327
       5827.2424       3.4165138
       5828.1277       3.5107796
       5829.0130       3.3627775
       5829.8983       3.6780165
       5830.7835       3.8341276
       5831.6688       3.8732053
       5832.5541       3.9791811
       5833.4394       4.0745510
       5834.3246       3.3880851
       5835.2099       3.6100095
       5836.0952       3.5293225
       5836.9805       3.2505344
       5837.8657       3.2838214
       5838.7510       3.9076595
       5839.6363       3.7536358
       5840.5216       3.5937293
       5841.4068       3.8477562
       5842.2921       3.6709988
       5843.1774       3.7617742
       5844.0627       3.3635422
       5844.9479       3.7491201
       5845.8332       3.6004661
       5846.7185       3.6168663
       5847.6038       4.0259454
       5848.4890       3.6067875
       5849.3743       3.5538213
       5850.2596       3.2280713
       5851.1449       3.2277100
       5852.0301       3.3318184
       5852.9154       3.4484239
       5853.8007       3.2164115
       5854.6860       3.3566753
       5855.5712       3.3381929
       5856.4565       3.5466478
       5857.3418       3.4455237
       5858.2271       3.4122025
       5859.1123       3.4580058
       5859.9976       3.4000992
       5860.8829       3.5521991
       5861.7682       3.5479045
       5862.6534       3.9107695
       5863.5387       4.4834204
       5864.4240       4.2966540
       5865.3093       4.3851794
       5866.1945       4.2162113
       5867.0798       4.3236203
       5867.9651       3.4752476
       5868.8504       3.2047313
       5869.7356       3.5462043
       5870.6209       3.7124694
       5871.5062       3.5557628
       5872.3915       3.6524162
       5873.2767       3.4257871
       5874.1620       3.1008189
       5875.0473       3.4221167
       5875.9326       3.4493861
       5876.8178       4.0658139
       5877.7031       4.0676693
       5878.5884       3.8234435
       5879.4737       3.8103062
       5880.3590       3.6943344
       5881.2442       3.3666984
       5882.1295       3.1193297
       5883.0148       3.0642953
       5883.9001       3.2313396
       5884.7853       3.0805130
       5885.6706       3.2144296
       5886.5559       2.9936001
       5887.4412       2.7536467
       5888.3264       2.8839941
       5889.2117       2.9326879
       5890.0970       2.9460155
       5890.9823       2.9837703
       5891.8675       2.9637646
       5892.7528       2.7840249
       5893.6381       3.1832503
       5894.5234       3.5357785
       5895.4086       3.4496977
       5896.2939       3.5820304
       5897.1792       2.9759802
       5898.0645       3.3161494
       5898.9497       3.3467356
       5899.8350       3.5315888
       5900.7203       3.9279790
       5901.6056       4.4192635
       5902.4908       4.3785580
       5903.3761       3.9550683
       5904.2614       3.7224791
       5905.1467       4.0694386
       5906.0319       3.2550551
       5906.9172       2.8556794
       5907.8025       2.8577815
       5908.6878       3.2822887
       5909.5730       3.3392300
       5910.4583       3.4345656
       5911.3436       3.6185483
       5912.2289       3.5638577
       5913.1141       3.8013500
       5913.9994       4.0984000
       5914.8847       3.4969499
       5915.7700       3.9081233
       5916.6552       3.2403796
       5917.5405       3.4488500
       5918.4258       3.3406195
       5919.3111       3.4004931
       5920.1963       3.4828917
       5921.0816       3.4325482
       5921.9669       4.1114218
       5922.8522       4.5613880
       5923.7374       4.2439923
       5924.6227       3.2114103
       5925.5080       2.8287587
       5926.3933       3.6222013
       5927.2785       2.9297174
       5928.1638       3.1981525
       5929.0491       2.7804329
       5929.9344       3.2173786
       5930.8196       3.3841183
       5931.7049       3.5354101
       5932.5902       3.3815319
       5933.4755       3.4933124
       5934.3607       3.6018213
       5935.2460       3.4181115
       5936.1313       3.6321840
       5937.0166       3.6867150
       5937.9018       3.8087507
       5938.7871       3.8512355
       5939.6724       3.7538985
       5940.5577       3.7950557
       5941.4429       3.8159187
       5942.3282       3.8422139
       5943.2135       3.5170358
       5944.0988       3.3762977
       5944.9840       3.6176927
       5945.8693       3.9079155
       5946.7546       3.9667485
       5947.6399       4.1945629
       5948.5251       3.8605215
       5949.4104       3.8333867
       5950.2957       3.5244234
       5951.1810       3.4554339
       5952.0662       3.2065565
       5952.9515       3.5850273
       5953.8368       3.0526115
       5954.7221       3.5215517
       5955.6073       3.6384520
       5956.4926       3.5913674
       5957.3779       3.5692520
       5958.2632       3.4111391
       5959.1485       3.5108890
       5960.0337       3.5106742
       5960.9190       3.5773668
       5961.8043       3.5384353
       5962.6896       3.4512006
       5963.5748       3.4622442
       5964.4601       3.6742227
       5965.3454       3.5752885
       5966.2307       3.6281453
       5967.1159       3.8538560
       5968.0012       3.7827353
       5968.8865       3.6341861
       5969.7718       3.7951136
       5970.6570       3.2434932
       5971.5423       3.7845597
       5972.4276       3.6011068
       5973.3129       3.8007725
       5974.1981       3.8007525
       5975.0834       4.0716457
       5975.9687       3.9453750
       5976.8540       3.6208178
       5977.7392       3.6614161
       5978.6245       3.4408535
       5979.5098       3.4845643
       5980.3951       3.7762894
       5981.2803       3.5143459
       5982.1656       3.7844739
       5983.0509       3.6252242
       5983.9362       3.5740703
       5984.8214       3.5541466
       5985.7067       3.4238555
       5986.5920       3.3156020
       5987.4773       3.7341797
       5988.3625       3.4655627
       5989.2478       3.4189681
       5990.1331       3.5616028
       5991.0184       3.5379503
       5991.9036       3.5152635
       5992.7889       3.5640332
       5993.6742       3.6082292
       5994.5595       3.6069543
       5995.4447       3.5515516
       5996.3300       3.5348825
       5997.2153       3.6964480
       5998.1006       3.4861466
       5998.9858       3.5477849
       5999.8711       3.5668470
       6000.7564       3.6413753
       6001.6417       3.4989280
       6002.5269       3.6883595
       6003.4122       3.5010225
       6004.2975       3.7337232
       6005.1828       3.4988407
       6006.0680       3.4786458
       6006.9533       3.4171548
       6007.8386       3.3121118
       6008.7239       3.4424130
       6009.6091       3.4125647
       6010.4944       3.2899975
       6011.3797       3.6373495
       6012.2650       3.4801528
       6013.1502       3.4485779
       6014.0355       3.6116169
       6014.9208       3.4783441
       6015.8061       3.4102486
       6016.6913       3.4623197
       6017.5766       3.3984255
       6018.4619       3.6263025
       6019.3472       3.4127834
       6020.2324       3.4343904
       6021.1177       3.5256032
       6022.0030       3.5126451
       6022.8883       3.5096329
       6023.7735       3.4459923
       6024.6588       3.4815533
       6025.5441       3.5567720
       6026.4294       3.4565458
       6027.3146       3.5777140
       6028.1999       3.5890817
       6029.0852       3.5595924
       6029.9705       3.4290390
       6030.8557       3.4620572
       6031.7410       3.5557352
       6032.6263       3.6327471
       6033.5116       3.7910242
       6034.3969       3.6286143
       6035.2821       3.5871792
       6036.1674       3.7778366
       6037.0527       3.9854314
       6037.9380       3.8338674
       6038.8232       3.7989604
       6039.7085       3.5876960
       6040.5938       3.7182608
       6041.4791       3.5961354
       6042.3643       3.6984246
       6043.2496       3.5408225
       6044.1349       3.3184721
       6045.0202       3.5270508
       6045.9054       3.4078813
       6046.7907       3.4207926
       6047.6760       3.6864317
       6048.5613       3.5191063
       6049.4465       3.5770940
       6050.3318       3.5009713
       6051.2171       3.4871154
       6052.1024       3.5854836
       6052.9876       3.5089462
       6053.8729       3.5015916
       6054.7582       3.4777427
       6055.6435       3.4539076
       6056.5287       3.4607841
       6057.4140       3.6060971
       6058.2993       3.5004940
       6059.1846       3.5747002
       6060.0698       3.5324021
       6060.9551       3.7464607
       6061.8404       3.4401427
       6062.7257       3.4716279
       6063.6109       3.5620649
       6064.4962       3.4190613
       6065.3815       3.5672309
       6066.2668       3.6239406
       6067.1520       3.6780824
       6068.0373       3.5218617
       6068.9226       3.5477669
       6069.8079       3.5637460
       6070.6931       3.5648200
       6071.5784       3.6896519
       6072.4637       3.6060754
       6073.3490       3.5330883
       6074.2342       3.5366144
       6075.1195       3.5972309
       6076.0048       3.5431196
       6076.8901       3.5102710
       6077.7753       3.5597111
       6078.6606       3.4009028
       6079.5459       3.3839774
       6080.4312       3.4190029
       6081.3164       3.4368061
       6082.2017       3.3482903
       6083.0870       3.5282371
       6083.9723       3.4794823
       6084.8575       3.4081300
       6085.7428       3.6221118
       6086.6281       3.4739698
       6087.5134       3.3962482
       6088.3986       3.6838381
       6089.2839       3.7066582
       6090.1692       3.6042723
       6091.0545       3.4796908
       6091.9397       3.4990633
       6092.8250       3.5291778
       6093.7103       3.7742727
       6094.5956       3.6089283
       6095.4808       3.4690054
       6096.3661       3.4376234
       6097.2514       3.4352966
       6098.1367       3.4083256
       6099.0219       3.4173149
       6099.9072       3.3654626
       6100.7925       3.3578827
       6101.6778       3.1511471
       6102.5630       3.2343173
       6103.4483       3.3806000
       6104.3336       3.5000531
       6105.2189       3.4457777
       6106.1041       3.4502239
       6106.9894       3.6384816
       6107.8747       3.6275675
       6108.7600       3.6763307
       6109.6453       3.4969530
       6110.5305       3.6055182
       6111.4158       3.5163327
       6112.3011       3.4268350
       6113.1864       3.5761195
       6114.0716       3.6416593
       6114.9569       3.6725107
       6115.8422       3.5849643
       6116.7275       3.7361132
       6117.6127       3.5608017
       6118.4980       3.4075269
       6119.3833       3.7546116
       6120.2686       3.4417653
       6121.1538       3.4317688
       6122.0391       3.3961342
       6122.9244       3.4804388
       6123.8097       3.4130087
       6124.6949       3.5879924
       6125.5802       3.5084380
       6126.4655       3.4568400
       6127.3508       3.4836057
       6128.2360       3.5797632
       6129.1213       3.6308493
       6130.0066       3.5195951
       6130.8919       3.4263677
       6131.7771       3.6318770
       6132.6624       3.6879717
       6133.5477       3.7579133
       6134.4330       3.7496009
       6135.3182       3.7034639
       6136.2035       3.7485869
       6137.0888       4.0259349
       6137.9741       3.7351747
       6138.8593       3.9971627
       6139.7446       3.2030641
       6140.6299       3.4019358
       6141.5152       3.7510048
       6142.4004       3.8230458
       6143.2857       4.0143552
       6144.1710       3.5320135
       6145.0563       3.8106854
       6145.9415       3.4218488
       6146.8268       3.5616354
       6147.7121       3.4621953
       6148.5974       3.6627890
       6149.4826       3.9402842
       6150.3679       4.0849750
       6151.2532       3.8731968
       6152.1385       3.7476490
       6153.0237       2.9881653
       6153.9090       2.9284070
       6154.7943       3.0486769
       6155.6796       3.3089960
       6156.5648       3.2069735
       6157.4501       3.6162422
       6158.3354       3.8688644
       6159.2207       3.6145150
       6160.1059       3.3750160
       6160.9912       3.3022304
       6161.8765       3.2466187
       6162.7618       3.4815172
       6163.6470       3.3771900
       6164.5323       3.4298566
       6165.4176       3.3861792
       6166.3029       3.3420306
       6167.1881       3.3168429
       6168.0734       3.3368860
       6168.9587       3.2641801
       6169.8440       3.3503514
       6170.7292       3.2879347
       6171.6145       3.1482867
       6172.4998       3.2833095
       6173.3851       3.3602682
       6174.2703       3.2908104
       6175.1556       3.4289966
       6176.0409       3.5624405
       6176.9262       3.5424698
       6177.8114       3.4029193
       6178.6967       3.5222034
       6179.5820       3.6514227
       6180.4673       3.4560513
       6181.3525       3.7471315
       6182.2378       4.0137840
       6183.1231       4.6841015
       6184.0084       5.4350025
       6184.8937       4.5310904
       6185.7789       4.2225779
       6186.6642       3.7198307
       6187.5495       3.2292237
       6188.4348       2.3119575
       6189.3200       2.7968640
       6190.2053       2.6661912
       6191.0906       3.4780513
       6191.9759       3.5243077
       6192.8611       3.7322277
       6193.7464       3.0495458
       6194.6317       3.1715626
       6195.5170       3.1799234
       6196.4022       3.4496050
       6197.2875       3.5308812
       6198.1728       3.7454135
       6199.0581       3.7426232
       6199.9433       3.5048887
       6200.8286       3.5747193
       6201.7139       3.5924743
       6202.5992       3.3650469
       6203.4844       3.2554697
       6204.3697       3.5420317
       6205.2550       3.6132684
       6206.1403       3.7022959
       6207.0255       3.5058056
       6207.9108       3.5321549
       6208.7961       3.5064060
       6209.6814       3.5613410
       6210.5666       3.7168280
       6211.4519       3.7784284
       6212.3372       3.6805833
       6213.2225       3.7704649
       6214.1077       3.4337377
       6214.9930       3.6371110
       6215.8783       3.5140493
       6216.7636       3.2964297
       6217.6488       3.1214906
       6218.5341       3.1777649
       6219.4194       3.5129817
       6220.3047       3.8456393
       6221.1899       3.5515388
       6222.0752       3.3424215
       6222.9605       4.2148445
       6223.8458       4.4442915
       6224.7310       4.5991252
       6225.6163       4.0191001
       6226.5016       3.9603475
       6227.3869       3.6553568
       6228.2721       3.2497591
       6229.1574       2.3115653
       6230.0427       2.5853661
       6230.9280       2.9618895
       6231.8132       3.3089968
       6232.6985       3.5713420
       6233.5838       3.4249499
       6234.4691       3.5788319
       6235.3543       3.9256785
       6236.2396       4.0312245
       6237.1249       4.1258649
       6238.0102       3.8980003
       6238.8954       3.5095320
       6239.7807       3.6279201
       6240.6660       3.4003598
       6241.5513       3.1218381
       6242.4365       3.2730388
       6243.3218       3.5059645
       6244.2071       3.4528075
       6245.0924       3.4214929
       6245.9776       4.3432467
       6246.8629       4.7872977
       6247.7482       3.9311543
       6248.6335       3.7057107
       6249.5187       3.9124426
       6250.4040       3.8451123
       6251.2893       2.7532518
       6252.1746       2.1477245
       6253.0598       2.7090633
       6253.9451       2.9329458
       6254.8304       3.3410837
       6255.7157       3.4135690
       6256.6009       3.3580034
       6257.4862       3.3587284
       6258.3715       3.3830281
       6259.2568       3.3426905
       6260.1420       3.4372245
       6261.0273       3.5489159
       6261.9126       3.5914442
       6262.7979       3.9246423
       6263.6832       3.7955709
       6264.5684       4.0148863
       6265.4537       3.7926869
       6266.3390       3.4817107
       6267.2243       3.5911178
       6268.1095       3.1309564
       6268.9948       3.2535981
       6269.8801       3.4461773
       6270.7654       3.5966318
       6271.6506       3.7613687
       6272.5359       4.5055645
       6273.4212       4.3137754
       6274.3065       4.3578205
       6275.1917       4.4117171
       6276.0770       4.0149750
       6276.9623       3.4376381
       6277.8476       2.3814736
       6278.7328       2.6157885
       6279.6181       3.0412605
       6280.5034       3.2440829
       6281.3887       3.5292532
       6282.2739       3.4629205
       6283.1592       3.3776769
       6284.0445       3.4863592
       6284.9298       3.4947534
       6285.8150       3.3360159
       6286.7003       3.5999478
       6287.5856       3.4098945
       6288.4709       3.6258259
       6289.3561       3.5020169
       6290.2414       3.5047012
       6291.1267       3.4602125
       6292.0120       3.5971681
       6292.8972       3.7273267
       6293.7825       3.8080733
       6294.6678       3.7348270
       6295.5531       3.5418810
       6296.4383       3.4730728
       6297.3236       3.4775199
       6298.2089       3.5960649
       6299.0942       3.6073206
       6299.9794       4.0729744
       6300.8647       4.3671165
       6301.7500       4.4075963
       6302.6353       4.7383117
       6303.5205       4.4673869
       6304.4058       3.9000881
       6305.2911       3.7762357
       6306.1764       3.1878736
       6307.0616       2.9645999
       6307.9469       3.0117095
       6308.8322       3.4764394
       6309.7175       3.6165711
       6310.6027       3.6224935
       6311.4880       3.7146305
       6312.3733       3.6115785
       6313.2586       3.5326928
       6314.1438       3.7066937
       6315.0291       3.6054328
       6315.9144       3.5624563
       6316.7997       3.4958417
       6317.6849       3.6442504
       6318.5702       3.6519857
       6319.4555       3.5684959
       6320.3408       3.6370674
       6321.2260       3.7513899
       6322.1113       3.6386299
       6322.9966       3.6060884
       6323.8819       3.6746516
       6324.7671       3.6397284
       6325.6524       3.5861573
       6326.5377       3.7428843
       6327.4230       3.8598464
       6328.3082       3.8619553
       6329.1935       3.7585615
       6330.0788       3.9547496
       6330.9641       3.9044035
       6331.8493       3.7311059
       6332.7346       3.6033056
       6333.6199       3.7505929
       6334.5052       4.0091946
       6335.3904       3.9310763
       6336.2757       3.8730517
       6337.1610       3.7098352
       6338.0463       3.7117872
       6338.9316       3.7446370
       6339.8168       3.6387286
       6340.7021       3.6593022
       6341.5874       3.7478220
       6342.4727       3.6044623
       6343.3579       3.5922069
       6344.2432       3.5098147
       6345.1285       3.5454139
       6346.0138       3.5485353
       6346.8990       3.5762063
       6347.7843       3.5728088
       6348.6696       3.4682685
       6349.5549       3.5308931
       6350.4401       3.5454742
       6351.3254       3.5173523
       6352.2107       3.7842346
       6353.0960       3.7495918
       6353.9812       3.7229979
       6354.8665       3.5321229
       6355.7518       3.6260625
       6356.6371       3.6238994
       6357.5223       3.6270791
       6358.4076       3.5090817
       6359.2929       3.5555469
       6360.1782       3.6084329
       6361.0634       3.5866274
       6361.9487       3.7704610
       6362.8340       3.7582801
       6363.7193       3.8067904
       6364.6045       3.8002344
       6365.4898       3.8414582
       6366.3751       3.7886600
       6367.2604       3.7149760
       6368.1456       3.7824568
       6369.0309       3.7920570
       6369.9162       3.8832011
       6370.8015       3.7684174
       6371.6867       3.8496045
       6372.5720       3.6887155
       6373.4573       3.7952574
       6374.3426       3.7973240
       6375.2278       3.7155885
       6376.1131       3.7388213
       6376.9984       3.8703678
       6377.8837       3.7041726
       6378.7689       3.7352183
       6379.6542       3.5378206
       6380.5395       3.7480416
       6381.4248       3.7403495
       6382.3100       3.7657592
       6383.1953       3.7420497
       6384.0806       3.6633890
       6384.9659       3.8268296
       6385.8511       3.8655842
       6386.7364       3.6981949
       6387.6217       3.6087742
       6388.5070       3.8722015
       6389.3922       3.7814996
       6390.2775       3.6230097
       6391.1628       3.8063615
       6392.0481       3.8642842
       6392.9333       3.8476214
       6393.8186       4.0264573
       6394.7039       3.6316135
       6395.5892       3.5710750
       6396.4744       3.6239766
       6397.3597       3.6099262
       6398.2450       3.7020682
       6399.1303       3.7436103
       6400.0155       3.5029269
       6400.9008       3.6008491
       6401.7861       3.8580081
       6402.6714       3.6936885
       6403.5566       3.6506708
       6404.4419       3.8333220
       6405.3272       3.8093410
       6406.2125       3.6909002
       6407.0977       3.9389143
       6407.9830       3.9814940
       6408.8683       4.0011816
       6409.7536       3.7764090
       6410.6388       3.8455904
       6411.5241       3.8046703
       6412.4094       3.7792094
       6413.2947       4.1602983
       6414.1800       3.9310577
       6415.0652       3.9225959
       6415.9505       3.8934292
       6416.8358       3.8135968
       6417.7211       4.0383309
       6418.6063       3.7345018
       6419.4916       3.8725021
       6420.3769       3.7302469
       6421.2622       3.8028687
       6422.1474       3.8183365
       6423.0327       3.7510402
       6423.9180       3.6170919
       6424.8033       3.8584708
       6425.6885       3.7597027
       6426.5738       3.7133025
       6427.4591       3.7236440
       6428.3444       3.8097697
       6429.2296       3.8277686
       6430.1149       3.6173155
       6431.0002       3.7022097
       6431.8855       3.8035529
       6432.7707       3.8622529
       6433.6560       3.8509423
       6434.5413       3.7124395
       6435.4266       3.7984403
       6436.3118       4.0209159
       6437.1971       3.8797055
       6438.0824       3.6377601
       6438.9677       3.6701523
       6439.8529       3.8095148
       6440.7382       3.7985958
       6441.6235       3.9070093
       6442.5088       3.7309848
       6443.3940       3.7046535
       6444.2793       3.7396608
       6445.1646       3.8759837
       6446.0499       3.8190653
       6446.9351       3.8780865
       6447.8204       3.8443670
       6448.7057       3.6659748
       6449.5910       3.6268762
       6450.4762       3.6624511
       6451.3615       3.6709980
       6452.2468       3.6867325
       6453.1321       3.6909608
       6454.0173       3.8014631
       6454.9026       3.9015534
       6455.7879       3.7154602
       6456.6732       3.6935498
       6457.5584       3.6326563
       6458.4437       3.7543473
       6459.3290       3.8470988
       6460.2143       3.8483573
       6461.0995       3.8801669
       6461.9848       3.9852806
       6462.8701       4.0096373
       6463.7554       3.8265325
       6464.6406       3.6298460
       6465.5259       3.6688742
       6466.4112       3.6781867
       6467.2965       3.7854931
       6468.1817       3.6977307
       6469.0670       3.8386527
       6469.9523       3.8621435
       6470.8376       3.7737444
       6471.7228       3.8498723
       6472.6081       4.0499768
       6473.4934       3.9114906
       6474.3787       3.8229707
       6475.2639       3.8023406
       6476.1492       4.0112077
       6477.0345       4.1020987
       6477.9198       3.8840115
       6478.8050       3.8434059
       6479.6903       3.8039098
       6480.5756       3.8613321
       6481.4609       3.9172116
       6482.3461       3.8080484
       6483.2314       3.6813946
       6484.1167       3.8013868
       6485.0020       3.7647501
       6485.8872       3.9037633
       6486.7725       3.9290628
       6487.6578       4.0078355
       6488.5431       3.8270997
       6489.4283       4.1226981
       6490.3136       4.2791620
       6491.1989       4.5099883
       6492.0842       3.8864077
       6492.9695       3.7597351
       6493.8547       3.3450781
       6494.7400       2.6797985
       6495.6253       3.6850265
       6496.5106       3.6411172
       6497.3958       3.1303165
       6498.2811       2.8614054
       6499.1664       3.2387731
       6500.0517       3.1780634
       6500.9369       2.3266043
       6501.8222       2.9839584
       6502.7075       4.0054024
       6503.5928       5.4168966
       6504.4780       5.4374663
       6505.3633       4.5626879
       6506.2486       4.2803008
       6507.1339       3.8514932
       6508.0191       3.0658290
       6508.9044       3.0000488
       6509.7897       3.0146942
       6510.6750       3.4788338
       6511.5602       3.9366425
       6512.4455       3.9653019
       6513.3308       4.2022019
       6514.2161       4.3861807
       6515.1013       4.0828884
       6515.9866       4.0953855
       6516.8719       3.9936458
       6517.7572       3.9809527
       6518.6424       3.8285709
       6519.5277       3.8639592
       6520.4130       3.8223526
       6521.2983       4.0154429
       6522.1835       3.9618494
       6523.0688       4.0102499
       6523.9541       4.0144168
       6524.8394       3.8898766
       6525.7246       3.9088943
       6526.6099       3.8783966
       6527.4952       3.8206999
       6528.3805       3.9349082
       6529.2657       3.8850210
       6530.1510       4.0484274
       6531.0363       3.9205217
       6531.9216       4.0563240
       6532.8068       4.0236280
       6533.6921       3.9730670
       6534.5774       3.9523345
       6535.4627       3.9793437
       6536.3479       4.1840474
       6537.2332       4.0888184
       6538.1185       4.2978704
       6539.0038       5.3577863
       6539.8890       6.7078154
       6540.7743       6.1605063
       6541.6596       6.0361741
       6542.5449       4.8752833
       6543.4301       3.9610804
       6544.3154       3.6805844
       6545.2007       3.2267229
       6546.0860       5.1819409
       6546.9712       7.1498946
       6547.8565       8.1562034
       6548.7418       7.8888841
       6549.6271       7.1243171
       6550.5123       6.2689643
       6551.3976       4.6756341
       6552.2829       4.1363899
       6553.1682       4.8598674
       6554.0534       4.9462666
       6554.9387       4.4507943
       6555.8240       4.4553895
       6556.7093       4.8245565
       6557.5945       5.3487384
       6558.4798       6.9009914
       6559.3651       9.5917841
       6560.2504       14.376059
       6561.1356       19.448449
       6562.0209       23.037523
       6562.9062       24.108689
       6563.7915       22.792776
       6564.6767       18.998217
       6565.5620       14.228037
       6566.4473       9.8165747
       6567.3326       6.8519402
       6568.2179       5.0723195
       6569.1031       4.7445774
       6569.9884       4.9895387
       6570.8737       4.6231978
       6571.7590       4.2601596
       6572.6442       4.1740476
       6573.5295       4.3502831
       6574.4148       4.4808165
       6575.3001       4.1515538
       6576.1853       4.3034748
       6577.0706       4.9971639
       6577.9559       5.3869269
       6578.8412       6.2463696
       6579.7264       7.3997432
       6580.6117       9.1972392
       6581.4970       11.542133
       6582.3823       14.001616
       6583.2675       16.389255
       6584.1528       15.790493
       6585.0381       11.502736
       6585.9234       8.4060568
       6586.8086       6.1804596
       6587.6939       3.6937907
       6588.5792      0.82617168
       6589.4645       1.8526140
       6590.3497       3.0843308
       6591.2350       3.8119594
       6592.1203       4.0781186
       6593.0056       3.9720335
       6593.8908       4.0648739
       6594.7761       4.2880724
       6595.6614       4.8115657
       6596.5467       5.2084078
       6597.4319       4.8530682
       6598.3172       4.7810951
       6599.2025       4.9194128
       6600.0878       4.5370432
       6600.9730       4.5962098
       6601.8583       4.4849565
       6602.7436       4.1523474
       6603.6289       4.2942896
       6604.5141       4.4870779
       6605.3994       4.3617308
       6606.2847       4.2730331
       6607.1700       4.9606936
       6608.0552       6.5746364
       6608.9405       7.4948522
       6609.8258       5.4071898
       6610.7111       4.5052735
       6611.5963       4.5651394
       6612.4816       3.7343588
       6613.3669       2.6706920
       6614.2522       2.8710801
       6615.1374       3.6987597
       6616.0227       4.1168315
       6616.9080       4.2058793
       6617.7933       4.2992033
       6618.6785       4.3984804
       6619.5638       4.2339204
       6620.4491       4.2887056
       6621.3344       4.2537098
       6622.2196       4.2833352
       6623.1049       4.0538191
       6623.9902       4.2858378
       6624.8755       4.5124304
       6625.7607       4.9784273
       6626.6460       4.6806378
       6627.5313       4.6024649
       6628.4166       4.2787470
       6629.3018       4.3130882
       6630.1871       4.0533730
       6631.0724       3.5004527
       6631.9577       3.8559226
       6632.8429       3.8973397
       6633.7282       4.2426400
       6634.6135       4.1208895
       6635.4988       4.2922700
       6636.3840       5.7868298
       6637.2693       6.8236706
       6638.1546       5.3781598
       6639.0399       4.8365358
       6639.9251       4.7665881
       6640.8104       4.5345239
       6641.6957       2.6812077
       6642.5810       2.9991254
       6643.4663       3.8609467
       6644.3515       4.0577739
       6645.2368       4.0588284
       6646.1221       4.1586934
       6647.0074       4.2234509
       6647.8926       4.0960996
       6648.7779       3.9798157
       6649.6632       3.8910796
       6650.5485       4.1819086
       6651.4337       4.2459704
       6652.3190       4.2205649
       6653.2043       4.1868516
       6654.0896       4.3641266
       6654.9748       4.2357410
       6655.8601       4.1450622
       6656.7454       4.2132427
       6657.6307       4.1898386
       6658.5159       4.2837430
       6659.4012       4.3690436
       6660.2865       4.6001423
       6661.1718       4.2920436
       6662.0570       3.9663637
       6662.9423       3.8166189
       6663.8276       3.4904611
       6664.7129       3.5754757
       6665.5981       4.0816533
       6666.4834       4.1923286
       6667.3687       4.3787543
       6668.2540       5.1095645
       6669.1392       5.6277204
       6670.0245       4.8041707
       6670.9098       4.5377744
       6671.7951       4.3509728
       6672.6803       4.5862006
       6673.5656       3.4328503
       6674.4509       3.3527214
       6675.3362       4.0081140
       6676.2214       4.1840531
       6677.1067       4.1656973
       6677.9920       4.1384186
       6678.8773       4.1771849
       6679.7625       3.9891597
       6680.6478       4.0522956
       6681.5331       4.0101263
       6682.4184       3.9621394
       6683.3036       3.8732615
       6684.1889       3.9714250
       6685.0742       4.0766392
       6685.9595       4.1037694
       6686.8447       4.2317620
       6687.7300       3.9873187
       6688.6153       3.9223732
       6689.5006       4.1769221
       6690.3858       4.1900630
       6691.2711       4.1416534
       6692.1564       4.2700047
       6693.0417       4.3534626
       6693.9269       4.5286775
       6694.8122       4.4867431
       6695.6975       4.7920261
       6696.5828       4.9544751
       6697.4680       4.9319104
       6698.3533       4.7901776
       6699.2386       4.7809200
       6700.1239       4.5470440
       6701.0091       4.2144077
       6701.8944       4.3045410
       6702.7797       4.5357774
       6703.6650       4.8399107
       6704.5502       5.0012902
       6705.4355       4.6547565
       6706.3208       4.7630904
       6707.2061       4.3571360
       6708.0913       4.3487963
       6708.9766       4.1373349
       6709.8619       4.3728842
       6710.7472       4.4236480
       6711.6324       4.6295363
       6712.5177       5.1157815
       6713.4030       5.7430570
       6714.2883       6.4198365
       6715.1735       6.8120200
       6716.0588       6.8862805
       6716.9441       6.5953831
       6717.8294       5.9695805
       6718.7147       5.4456653
       6719.5999       4.9844055
       6720.4852       4.7812865
       6721.3705       4.3017360
       6722.2558       4.0828222
       6723.1410       4.0938974
       6724.0263       4.2365251
       6724.9116       4.2859657
       6725.7969       4.4613119
       6726.6821       4.7756938
       6727.5674       5.1991060
       6728.4527       5.8771192
       6729.3380       6.2018868
       6730.2232       6.3336674
       6731.1085       6.1147975
       6731.9938       5.8620231
       6732.8791       5.3794785
       6733.7643       5.1013003
       6734.6496       4.6332301
       6735.5349       4.4882858
       6736.4202       4.2933577
       6737.3054       4.3690338
       6738.1907       4.2913983
       6739.0760       4.4056538
       6739.9613       4.3324008
       6740.8465       4.2808648
       6741.7318       4.4097828
       6742.6171       4.5069948
       6743.5024       4.5209106
       6744.3876       4.4119006
       6745.2729       4.3417889
       6746.1582       4.2060376
       6747.0435       4.4719260
       6747.9287       4.4979058
       6748.8140       4.3595456
       6749.6993       4.3859674
       6750.5846       4.5239385
       6751.4698       4.3616019
       6752.3551       4.3929342
       6753.2404       4.3855136
       6754.1257       4.5771162
       6755.0109       4.6211158
       6755.8962       4.6035323
       6756.7815       4.4500904
       6757.6668       4.4604721
       6758.5520       4.2903964
       6759.4373       4.2955446
       6760.3226       4.3236666
       6761.2079       4.4464989
       6762.0931       4.4337667
       6762.9784       4.3025702
       6763.8637       4.4109533
       6764.7490       4.1967731
       6765.6342       3.7091180
       6766.5195       3.8433200
       6767.4048       4.1206410
       6768.2901       4.1303512
       6769.1753       4.1401550
       6770.0606       4.0687108
       6770.9459       4.1966818
       6771.8312       4.3966725
       6772.7164       4.3371704
       6773.6017       4.2556604
       6774.4870       4.4686658
       6775.3723       4.5354461
       6776.2575       4.5013793
       6777.1428       4.4504624
       6778.0281       4.4613567
       6778.9134       4.5209132
       6779.7986       4.6462241
       6780.6839       4.6179878
       6781.5692       4.4755427
       6782.4545       4.2616347
       6783.3397       4.2042395
       6784.2250       3.9705541
       6785.1103       3.8502661
       6785.9956       4.0792759
       6786.8808       4.3360010
       6787.7661       4.4637350
       6788.6514       4.5545976
       6789.5367       4.5612303
       6790.4219       4.7731188
       6791.3072       4.7903305
       6792.1925       4.6889629
       6793.0778       4.6709859
       6793.9630       4.5242051
       6794.8483       4.4384597
       6795.7336       4.4920479
       6796.6189       4.3388678
       6797.5042       4.3152092
       6798.3894       4.2459694
       6799.2747       4.2409759
       6800.1600       4.2916346
       6801.0453       4.3052570
       6801.9305       4.4317625
       6802.8158       4.5893135
       6803.7011       4.5585077
       6804.5864       4.4831654
       6805.4716       4.4394402
       6806.3569       4.4314085
       6807.2422       4.3746046
       6808.1275       4.2084304
       6809.0127       4.3225008
       6809.8980       4.4616381
       6810.7833       4.5068854
       6811.6686       4.5459548
       6812.5538       4.5890015
       6813.4391       4.4781863
       6814.3244       4.4792290
       6815.2097       4.5783260
       6816.0949       4.5198118
       6816.9802       4.5390592
       6817.8655       4.5960702
       6818.7508       4.7235696
       6819.6360       4.6387714
       6820.5213       4.6755536
       6821.4066       4.7071405
       6822.2919       4.6771193
       6823.1771       4.5525764
       6824.0624       4.5146628
       6824.9477       4.4950098
       6825.8330       4.4236454
       6826.7182       4.5923731
       6827.6035       4.5684339
       6828.4888       4.6503182
       6829.3741       4.4971410
       6830.2593       4.6381593
       6831.1446       4.7602416
       6832.0299       4.6553211
       6832.9152       4.5752427
       6833.8004       4.7123777
       6834.6857       4.5337150
       6835.5710       4.5690109
       6836.4563       4.6703661
       6837.3415       4.7793175
       6838.2268       4.8617205
       6839.1121       4.6021633
       6839.9974       4.6380364
       6840.8826       4.5137474
       6841.7679       4.4602633
       6842.6532       4.4659944
       6843.5385       4.3909167
       6844.4237       4.5111505
       6845.3090       4.6358836
       6846.1943       4.7236979
       6847.0796       4.8013695
       6847.9648       4.6939565
       6848.8501       4.6487906
       6849.7354       4.5991066
       6850.6207       4.6088662
       6851.5059       4.6216677
       6852.3912       4.6192118
       6853.2765       4.6184934
       6854.1618       4.6184597
       6855.0470       4.6397282
       6855.9323       4.6216064
       6856.8176       4.5456514
       6857.7029       4.7121554
       6858.5881       4.5837726
       6859.4734       4.7319624
       6860.3587       4.7210431
       6861.2440       4.7832401
       6862.1292       4.7244300
       6863.0145       4.8042337
       6863.8998       4.8023646
       6864.7851       4.8604501
       6865.6703       5.0727241
       6866.5556       5.1780775
       6867.4409       5.2004722
       6868.3262       4.9615624
       6869.2114       4.9757632
       6870.0967       5.0151618
       6870.9820       4.9052410
       6871.8673       4.7129678
       6872.7526       4.7771557
       6873.6378       4.6774306
       6874.5231       4.6224396
       6875.4084       4.3758085
       6876.2937       4.3886054
       6877.1789       4.3444873
       6878.0642       4.4703842
       6878.9495       4.4792417
       6879.8348       4.4600065
       6880.7200       4.5741254
       6881.6053       4.7674260
       6882.4906       4.6549644
       6883.3759       4.6295615
       6884.2611       4.8496235
       6885.1464       4.8663593
       6886.0317       4.6479295
       6886.9170       4.7122781
       6887.8022       4.7142673
       6888.6875       4.7559713
       6889.5728       4.5828886
       6890.4581       4.5391126
       6891.3433       4.6247146
       6892.2286       4.5808599
       6893.1139       5.3039726
       6893.9992       6.1119856
       6894.8844       6.7499110
       6895.7697       5.8585720
       6896.6550       5.3090316
       6897.5403       4.9007351
       6898.4255       6.4065017
       6899.3108       5.8357325
       6900.1961       4.5150366
       6901.0814       4.2362298
       6901.9666       4.9954823
       6902.8519       4.6288348
       6903.7372       2.3017937
       6904.6225       2.1965950
       6905.5077       1.9682651
       6906.3930       5.3474593
       6907.2783       5.0894478
       6908.1636       5.2733779
       6909.0488       4.8092219
       6909.9341       4.7315487
       6910.8194       3.4685614
       6911.7047       2.0239433
       6912.5899       3.4786959
       6913.4752       3.9917244
       6914.3605       4.4573722
       6915.2458       4.5635842
       6916.1310       4.5630118
       6917.0163       4.7311493
       6917.9016       4.3817311
       6918.7869       4.2490406
       6919.6721       3.9279298
       6920.5574       3.9142840
       6921.4427       3.6678721
       6922.3280       2.9097814
       6923.2132       3.0353626
       6924.0985       3.2888858
       6924.9838       3.3228871
       6925.8691       3.6828481
       6926.7543       4.1401908
       6927.6396       4.4482307
       6928.5249       4.6445602
       6929.4102       4.2888908
       6930.2954       4.1019846
       6931.1807       4.0489175
       6932.0660       3.8810587
       6932.9513       3.5250108
       6933.8365       3.3249978
       6934.7218       3.6388619
       6935.6071       3.8257896
       6936.4924       4.0627772
       6937.3776       4.4892798
       6938.2629       4.5170789
       6939.1482       4.3034493
       6940.0335       4.0665090
       6940.9187       3.9958319
       6941.8040       4.0010086
       6942.6893       3.9190226
       6943.5746       4.4230385
       6944.4598       6.7616651
       6945.3451       8.1194184
       6946.2304       4.8978064
       6947.1157       7.6770666
       6948.0010       10.655119
       6948.8862       9.4468150
       6949.7715       7.1674621
       6950.6568       6.0166490
       6951.5421       6.4164686
       6952.4273       5.0690395
       6953.3126       4.5864853
       6954.1979       4.3888080
       6955.0832       4.7544376
       6955.9684       4.4966227
       6956.8537       4.2153383
       6957.7390       3.7325174
       6958.6243       3.9916437
       6959.5095       4.5117343
       6960.3948       4.5566600
       6961.2801       4.7908234
       6962.1654       4.9219415
       6963.0506       4.7493540
       6963.9359       5.1014846
       6964.8212       5.4077485
       6965.7065       4.3066152
       6966.5917       4.7145828
       6967.4770       4.7350500
       6968.3623       5.0375261
       6969.2476       4.4023566
       6970.1328       3.8530277
       6971.0181       4.1881405
       6971.9034       4.3904636
       6972.7887       4.2424268
       6973.6739       4.1556836
       6974.5592       4.2835768
       6975.4445       4.3843703
       6976.3298       4.6849908
       6977.2150       5.5428900
       6978.1003       5.3956012
       6978.9856       4.8419615
       6979.8709       4.8157373
       6980.7561       4.8759574
       6981.6414       4.9107658
       6982.5267       4.1257422
       6983.4120       4.2497279
       6984.2972       3.9221239
       6985.1825       3.8557947
       6986.0678       3.7048871
       6986.9531       3.8440162
       6987.8383       3.8865340
       6988.7236       4.0782537
       6989.6089       4.5114613
       6990.4942       4.7353836
       6991.3794       6.0200564
       6992.2647       6.3880157
       6993.1500       4.4651309
       6994.0353       4.4488554
       6994.9205       4.1971179
       6995.8058       4.0233451
       6996.6911       2.7206551
       6997.5764       1.2252941
       6998.4616       3.4890013
       6999.3469       3.6668495
       7000.2322       4.2984006
       7001.1175       4.6638130
       7002.0027       4.6924144
       7002.8880       4.5893924
       7003.7733       4.3974377
       7004.6586       4.5506287
       7005.5438       5.3915551
       7006.4291       5.2572131
       7007.3144       4.1752553
       7008.1997       4.3969433
       7009.0849       4.2845898
       7009.9702       4.2447894
       7010.8555       3.5157013
       7011.7408       3.3663240
       7012.6260       4.2134079
       7013.5113       4.2925640
       7014.3966       4.5847828
       7015.2819       4.5714167
       7016.1671       4.4567809
       7017.0524       4.4592247
       7017.9377       4.5655211
       7018.8230       6.2647946
       7019.7082       6.9646432
       7020.5935       5.9138504
       7021.4788       5.3625483
       7022.3641       5.3730473
       7023.2494       4.8966220
       7024.1346       2.9035170
       7025.0199       1.3510297
       7025.9052       3.7423944
       7026.7905       4.1539724
       7027.6757       4.4316463
       7028.5610       4.6139367
       7029.4463       4.4449738
       7030.3316       4.6396757
       7031.2168       4.7282086
       7032.1021       4.6233447
       7032.9874       4.4338755
       7033.8727       4.2680657
       7034.7579       4.2285553
       7035.6432       4.2571205
       7036.5285       4.2420151
       7037.4138       4.0012325
       7038.2990       4.5700616
       7039.1843       4.8800932
       7040.0696       3.8547031
       7040.9549       4.8733739
       7041.8401       4.8360732
       7042.7254       4.4295783
       7043.6107       3.9380438
       7044.4960       4.3385188
       7045.3812       5.0574150
       7046.2665       5.2563157
       7047.1518       5.0502030
       7048.0371       4.7882185
       7048.9223       4.8999716
       7049.8076       5.1080669
       7050.6929       6.8656996
       7051.5782       7.8303177
       7052.4634       4.8726871
       7053.3487       4.4626977
       7054.2340       3.9386808
       7055.1193       3.8699398
       7056.0045       2.0961263
       7056.8898       2.5565815
       7057.7751       3.7576950
       7058.6604       4.1953075
       7059.5456       4.2106052
       7060.4309       4.5150719
       7061.3162       4.8112479
       7062.2015       4.6797436
       7063.0867       4.6679554
       7063.9720       4.7130798
       7064.8573       4.6586391
       7065.7426       4.8627594
       7066.6278       4.8456572
       7067.5131       4.7730148
       7068.3984       5.0285370
       7069.2837       4.7769290
       7070.1689       4.5705668
       7071.0542       4.4801729
       7071.9395       4.3129842
       7072.8248       4.4300882
       7073.7100       4.4943481
       7074.5953       4.9076651
       7075.4806       5.5666964
       7076.3659       5.5068870
       7077.2511       4.8361843
       7078.1364       4.5892369
       7079.0217       4.2790706
       7079.9070       4.0949069
       7080.7922       3.7092587
       7081.6775       4.2446513
       7082.5628       4.4457458
       7083.4481       4.5480941
       7084.3333       4.5204329
       7085.2186       4.7307871
       7086.1039       5.8676947
       7086.9892       6.5100172
       7087.8744       4.5257267
       7088.7597       4.4725805
       7089.6450       4.3599435
       7090.5303       3.9260205
       7091.4155       2.7767092
       7092.3008       3.1565303
       7093.1861       4.2678213
       7094.0714       4.5858122
       7094.9566       4.6577995
       7095.8419       4.6524197
       7096.7272       4.7116243
       7097.6125       4.5838670
       7098.4977       4.4971486
       7099.3830       4.2027149
       7100.2683       4.4698397
       7101.1536       4.5892213
       7102.0389       4.5491381
       7102.9241       4.4401077
       7103.8094       4.4840512
       7104.6947       4.4563462
       7105.5800       4.2531562
       7106.4652       4.1556575
       7107.3505       4.2693366
       7108.2358       4.4880007
       7109.1211       4.3950325
       7110.0063       4.2723638
       7110.8916       4.4967505
       7111.7769       4.5267376
       7112.6622       4.4955646
       7113.5474       4.5901523
       7114.4327       4.7455264
       7115.3180       4.7988502
       7116.2033       5.1079120
       7117.0885       4.9591519
       7117.9738       4.6215097
       7118.8591       4.6832792
       7119.7444       5.0019862
       7120.6296       4.9980359
       7121.5149       4.3279340
       7122.4002       4.5771906
       7123.2855       4.6796562
       7124.1707       4.5935976
       7125.0560       4.8851646
       7125.9413       5.1524191
       7126.8266       4.7899877
       7127.7118       4.4744294
       7128.5971       3.8697654
       7129.4824       3.6806334
       7130.3677       3.3983780
       7131.2529       2.6802900
       7132.1382       3.7247149
       7133.0235       4.6252937
       7133.9088       4.5943574
       7134.7940       4.2922035
       7135.6793       4.3017364
       7136.5646       4.6465424
       7137.4499       4.9684198
       7138.3351       4.7198531
       7139.2204       4.5933232
       7140.1057       4.5053612
       7140.9910       4.4313011
       7141.8762       4.5938066
       7142.7615       4.5251835
       7143.6468       4.5151129
       7144.5321       4.5320758
       7145.4173       4.5186104
       7146.3026       4.3247489
       7147.1879       4.0770321
       7148.0732       4.3834193
       7148.9584       4.6719877
       7149.8437       4.7543696
       7150.7290       4.7542078
       7151.6143       4.8222217
       7152.4995       4.8199159
       7153.3848       4.9373188
       7154.2701       4.6556023
       7155.1554       4.9092199
       7156.0406       4.8901199
       7156.9259       4.9150466
       7157.8112       4.7045590
       7158.6965       4.9268755
       7159.5817       4.9820029
       7160.4670       4.9375322
       7161.3523       5.0323524
       7162.2376       4.9782684
       7163.1228       5.4365690
       7164.0081       5.7721304
       7164.8934       5.3736018
       7165.7787       4.8227921
       7166.6639       4.8640452
       7167.5492       5.0530538
       7168.4345       4.7435571
       7169.3198       5.2041647
       7170.2050       5.6659918
       7171.0903       5.7326120
       7171.9756       5.0208895
       7172.8609       4.3197646
       7173.7461       4.6930360
       7174.6314       4.4764152
       7175.5167       3.7643051
       7176.4020       3.9307001
       7177.2873       4.8120200
       7178.1725       4.7674806
       7179.0578       4.8053755
       7179.9431       4.7149573
       7180.8284       4.9494328
       7181.7136       4.9404535
       7182.5989       4.6709471
       7183.4842       5.9882891
       7184.3695       7.2102740
       7185.2547       4.8409150
       7186.1400       5.4899701
       7187.0253       5.1934973
       7187.9106       4.7400407
       7188.7958       3.9703768
       7189.6811       4.2799780
       7190.5664       5.0953757
       7191.4517       4.8709493
       7192.3369       5.1459115
       7193.2222       5.4595878
       7194.1075       4.4911472
       7194.9928       4.8536494
       7195.8780       5.2444036
       7196.7633       5.3816008
       7197.6486       4.7038899
       7198.5339       5.1996652
       7199.4191       6.0920589
       7200.3044       5.0101597
       7201.1897       6.4244693
       7202.0750       6.6918309
       7202.9602       7.8384795
       7203.8455       7.4676348
       7204.7308       7.2501147
       7205.6161       7.8036193
       7206.5013       5.9217774
       7207.3866       5.4333826
       7208.2719       5.0981769
       7209.1572       5.0440947
       7210.0424       5.1974846
       7210.9277       5.0470346
       7211.8130       4.8891744
       7212.6983       5.7052528
       7213.5835       4.9409331
       7214.4688       4.9210289
       7215.3541       4.4863209
       7216.2394       3.9612859
       7217.1246       3.6576714
       7218.0099       3.6204641
       7218.8952       5.0031935
       7219.7805       5.1429035
       7220.6657       5.0608810
       7221.5510       5.0525971
       7222.4363       5.0362976
       7223.3216       4.4857067
       7224.2068       4.5422945
