# wavelength flux
       2856.7964       1.0307904
       2857.7985      0.80469371
       2858.8005      0.71888678
       2859.8026      0.72781769
       2860.8047      0.81224050
       2861.8067       1.2912345
       2862.8088      0.95443637
       2863.8108      0.97317452
       2864.8129      0.96589184
       2865.8150      0.67718735
       2866.8170      0.77423983
       2867.8191       1.0459704
       2868.8211      0.46393855
       2869.8232      0.87316766
       2870.8253      0.85211650
       2871.8273      0.79755810
       2872.8294      0.74362714
       2873.8314      0.79497174
       2874.8335      0.77590661
       2875.8356       1.0155696
       2876.8376      0.89077551
       2877.8397      0.89879586
       2878.8418      0.37940165
       2879.8438      0.40931413
       2880.8459      0.86415840
       2881.8479      0.78546078
       2882.8500      0.74415026
       2883.8521      0.83554039
       2884.8541      0.81970930
       2885.8562      0.87961196
       2886.8582      0.93924493
       2887.8603       1.0624653
       2888.8624       1.0642405
       2889.8644      0.94544269
       2890.8665       1.1962558
       2891.8685      0.59505439
       2892.8706       1.0077656
       2893.8727       1.0008927
       2894.8747      0.71805863
       2895.8768      0.76261391
       2896.8789      0.75341580
       2897.8809      0.70608875
       2898.8830      0.85609437
       2899.8850      0.63452436
       2900.8871      0.71724397
       2901.8892      0.92366292
       2902.8912      0.66309014
       2903.8933      0.78908310
       2904.8953      0.94305870
       2905.8974      0.76606750
       2906.8995      0.98185962
       2907.9015      0.67967487
       2908.9036      0.75951787
       2909.9056      0.71556837
       2910.9077      0.84021640
       2911.9098      0.51365213
       2912.9118      0.81773216
       2913.9139      0.80476186
       2914.9159      0.82514883
       2915.9180      0.55170984
       2916.9201      0.70746171
       2917.9221      0.69671336
       2918.9242      0.55938568
       2919.9263      0.75763403
       2920.9283      0.77005912
       2921.9304      0.76796500
       2922.9324      0.86316460
       2923.9345      0.87221273
       2924.9366      0.95284193
       2925.9386      0.72440830
       2926.9407      0.76010321
       2927.9427      0.85185287
       2928.9448      0.95312627
       2929.9469      0.61754861
       2930.9489      0.67899559
       2931.9510      0.74904516
       2932.9530      0.66391872
       2933.9551      0.66548466
       2934.9572      0.80466833
       2935.9592      0.62950328
       2936.9613      0.80660322
       2937.9634      0.60857986
       2938.9654      0.74250422
       2939.9675      0.56330196
       2940.9695      0.48492504
       2941.9716      0.66128278
       2942.9737      0.54460261
       2943.9757      0.70938768
       2944.9778      0.58468703
       2945.9798      0.61567202
       2946.9819      0.50822753
       2947.9840      0.45388072
       2948.9860      0.51487921
       2949.9881      0.64159918
       2950.9901      0.55530249
       2951.9922      0.80218308
       2952.9943      0.77459919
       2953.9963      0.55935360
       2954.9984      0.67418880
       2956.0005      0.69126575
       2957.0025      0.74089112
       2958.0046      0.79484986
       2959.0066      0.83666948
       2960.0087      0.75604410
       2961.0108      0.68527358
       2962.0128      0.87356279
       2963.0149      0.73453145
       2964.0169      0.70900612
       2965.0190      0.90048790
       2966.0211      0.80705039
       2967.0231      0.76035063
       2968.0252      0.73230199
       2969.0272      0.80440829
       2970.0293      0.70657705
       2971.0314      0.72703694
       2972.0334      0.70688493
       2973.0355      0.74724533
       2974.0376      0.83476702
       2975.0396      0.65568165
       2976.0417      0.83846299
       2977.0437      0.74539455
       2978.0458      0.79335860
       2979.0479      0.68724293
       2980.0499      0.81853477
       2981.0520      0.90063474
       2982.0540      0.90780336
       2983.0561      0.85908845
       2984.0582      0.97729841
       2985.0602      0.85662462
       2986.0623      0.90342434
       2987.0643      0.94036118
       2988.0664       1.0140268
       2989.0685      0.95488642
       2990.0705      0.93320407
       2991.0726      0.84592405
       2992.0747      0.92914866
       2993.0767      0.80165515
       2994.0788      0.86595154
       2995.0808      0.91548665
       2996.0829      0.87279785
       2997.0850      0.74819256
       2998.0870      0.80897866
       2999.0891      0.80737754
       3000.0911      0.89104062
       3001.0932      0.93361009
       3002.0953       1.0460873
       3003.0973      0.98186289
       3004.0994       1.0379488
       3005.1014      0.95727497
       3006.1035      0.95117619
       3007.1056       1.0563116
       3008.1076       1.0673041
       3009.1097      0.98584965
       3010.1118       1.0889379
       3011.1138       1.1192854
       3012.1159       1.0660120
       3013.1179       1.1062321
       3014.1200      0.95956197
       3015.1221       1.0062853
       3016.1241      0.85796221
       3017.1262      0.79336208
       3018.1282       1.0189254
       3019.1303       1.0242607
       3020.1324       1.0546215
       3021.1344       1.0708163
       3022.1365       1.0141869
       3023.1385      0.84805865
       3024.1406      0.85931945
       3025.1427      0.98685477
       3026.1447      0.88636374
       3027.1468      0.94677805
       3028.1489      0.88531140
       3029.1509      0.93411829
       3030.1530      0.99376834
       3031.1550       1.0642628
       3032.1571       1.0632318
       3033.1592       1.1222397
       3034.1612       1.0713836
       3035.1633      0.90926714
       3036.1653      0.89176552
       3037.1674       1.2433203
       3038.1695       1.1408741
       3039.1715       1.1165715
       3040.1736       1.2463525
       3041.1756       1.2104077
       3042.1777       1.1341773
       3043.1798       1.1328159
       3044.1818       1.2088452
       3045.1839       1.2332537
       3046.1859       1.1174207
       3047.1880       1.1935732
       3048.1901       1.0186511
       3049.1921       1.1880480
       3050.1942       1.1657862
       3051.1963      0.93425320
       3052.1983       1.1560023
       3053.2004       1.0904976
       3054.2024       1.1031681
       3055.2045       1.2365812
       3056.2066      0.95485645
       3057.2086       1.0003975
       3058.2107       1.0862394
       3059.2127      0.92531621
       3060.2148       1.0930980
       3061.2169      0.87680780
       3062.2189       1.1091229
       3063.2210       1.0651506
       3064.2230       1.0477562
       3065.2251       1.0456880
       3066.2272       1.0439350
       3067.2292       1.0273631
       3068.2313      0.89060744
       3069.2334      0.91761954
       3070.2354      0.94907437
       3071.2375      0.91278143
       3072.2395      0.92558058
       3073.2416      0.83899124
       3074.2437      0.76739691
       3075.2457      0.80749536
       3076.2478      0.94264229
       3077.2498      0.79233850
       3078.2519      0.82511986
       3079.2540      0.77581508
       3080.2560      0.72248278
       3081.2581      0.60670169
       3082.2601      0.64838759
       3083.2622      0.67783869
       3084.2643      0.78709506
       3085.2663      0.83823920
       3086.2684      0.71267928
       3087.2705      0.67706681
       3088.2725      0.80231446
       3089.2746      0.75951056
       3090.2766      0.87801878
       3091.2787      0.78932093
       3092.2808      0.89219307
       3093.2828      0.81093875
       3094.2849      0.83345362
       3095.2869      0.73827629
       3096.2890      0.81369095
       3097.2911      0.85824762
       3098.2931      0.80158754
       3099.2952      0.78844270
       3100.2972      0.72588329
       3101.2993      0.78154191
       3102.3014      0.78727098
       3103.3034      0.71994772
       3104.3055      0.81634176
       3105.3076      0.76170901
       3106.3096      0.70516563
       3107.3117      0.66993953
       3108.3137      0.66408465
       3109.3158      0.74634687
       3110.3179      0.85264026
       3111.3199      0.73376474
       3112.3220      0.80001665
       3113.3240      0.84452690
       3114.3261      0.77771232
       3115.3282      0.85024392
       3116.3302      0.92828577
       3117.3323      0.94793314
       3118.3343      0.93439243
       3119.3364      0.96791223
       3120.3385      0.78523120
       3121.3405      0.89113327
       3122.3426      0.90765500
       3123.3447      0.96515023
       3124.3467      0.87778314
       3125.3488      0.82212368
       3126.3508      0.82800368
       3127.3529      0.83377032
       3128.3550      0.84844941
       3129.3570      0.80701731
       3130.3591      0.92761536
       3131.3611      0.93785737
       3132.3632      0.86613662
       3133.3653      0.92562809
       3134.3673      0.89262002
       3135.3694      0.96442343
       3136.3714      0.91986837
       3137.3735      0.93706205
       3138.3756      0.81588204
       3139.3776      0.79202580
       3140.3797      0.74789748
       3141.3818      0.76056299
       3142.3838      0.69365423
       3143.3859      0.79243689
       3144.3879      0.66901190
       3145.3900      0.77435038
       3146.3921      0.70396771
       3147.3941      0.72394245
       3148.3962      0.70531970
       3149.3982      0.80614098
       3150.4003      0.73464144
       3151.4024      0.64338210
       3152.4044      0.68953447
       3153.4065      0.74298193
       3154.4085      0.71164910
       3155.4106      0.78984866
       3156.4127      0.78548935
       3157.4147      0.69346140
       3158.4168      0.69622430
       3159.4189      0.75051301
       3160.4209      0.76572559
       3161.4230      0.74111666
       3162.4250      0.73782264
       3163.4271      0.72440435
       3164.4292      0.73972420
       3165.4312      0.66940887
       3166.4333      0.73983123
       3167.4353      0.78041705
       3168.4374      0.80748046
       3169.4395      0.72237922
       3170.4415      0.76944353
       3171.4436      0.73452283
       3172.4456      0.76500324
       3173.4477      0.71997799
       3174.4498      0.80730328
       3175.4518      0.75950699
       3176.4539      0.71079733
       3177.4559      0.77138448
       3178.4580      0.79679996
       3179.4601      0.65349617
       3180.4621      0.75430891
       3181.4642      0.80532217
       3182.4663      0.69732688
       3183.4683      0.78675164
       3184.4704      0.76295129
       3185.4724      0.74731910
       3186.4745      0.78631197
       3187.4766      0.85603138
       3188.4786      0.76880106
       3189.4807      0.78177918
       3190.4827      0.87046287
       3191.4848      0.80446724
       3192.4869      0.75057345
       3193.4889      0.79505706
       3194.4910      0.69962284
       3195.4930      0.80162809
       3196.4951      0.76598439
       3197.4972      0.74993289
       3198.4992      0.74600704
       3199.5013      0.80087068
       3200.5034      0.82757219
       3201.5054      0.70652360
       3202.5075      0.81289556
       3203.5095      0.90602694
       3204.5116      0.86480734
       3205.5137      0.86689579
       3206.5157      0.85793661
       3207.5178      0.85805249
       3208.5198      0.87795596
       3209.5219      0.68780721
       3210.5240      0.79023533
       3211.5260      0.84989183
       3212.5281      0.81308332
       3213.5301      0.74688109
       3214.5322      0.72239459
       3215.5343      0.64043459
       3216.5363      0.65557419
       3217.5384      0.75245231
       3218.5405      0.68993759
       3219.5425      0.70550409
       3220.5446      0.59470454
       3221.5466      0.67097581
       3222.5487      0.66920420
       3223.5508      0.67590477
       3224.5528      0.64379845
       3225.5549      0.75582785
       3226.5569      0.70710321
       3227.5590      0.68578664
       3228.5611      0.71223992
       3229.5631      0.75660755
       3230.5652      0.81168309
       3231.5672      0.73106560
       3232.5693      0.72085899
       3233.5714      0.68313051
       3234.5734      0.68180658
       3235.5755      0.84719979
       3236.5776      0.71960370
       3237.5796      0.61331234
       3238.5817      0.78583341
       3239.5837      0.71135096
       3240.5858      0.71611055
       3241.5879      0.73477223
       3242.5899      0.69061920
       3243.5920      0.87986124
       3244.5940      0.78191828
       3245.5961      0.70720380
       3246.5982      0.82125756
       3247.6002      0.84037724
       3248.6023      0.87691865
       3249.6043      0.87448188
       3250.6064      0.79744215
       3251.6085      0.88169651
       3252.6105      0.84795704
       3253.6126      0.83450143
       3254.6147      0.88084381
       3255.6167      0.78724921
       3256.6188      0.76537159
       3257.6208      0.79324024
       3258.6229      0.77861678
       3259.6250      0.73230814
       3260.6270      0.79947793
       3261.6291      0.70165828
       3262.6311      0.78924831
       3263.6332      0.86448245
       3264.6353      0.74286375
       3265.6373      0.81716192
       3266.6394      0.78513154
       3267.6414      0.68748526
       3268.6435      0.67811314
       3269.6456      0.71885444
       3270.6476      0.75883724
       3271.6497      0.78751685
       3272.6518      0.78075045
       3273.6538      0.73911694
       3274.6559      0.64515604
       3275.6579      0.68899247
       3276.6600      0.68544661
       3277.6621      0.71631317
       3278.6641      0.71046910
       3279.6662      0.69085821
       3280.6682      0.69464258
       3281.6703      0.76314850
       3282.6724      0.80988305
       3283.6744      0.84259577
       3284.6765      0.81630615
       3285.6785      0.86553054
       3286.6806      0.82292609
       3287.6827      0.86997455
       3288.6847      0.86715445
       3289.6868      0.90524451
       3290.6889      0.89086674
       3291.6909      0.76047035
       3292.6930      0.82809027
       3293.6950      0.82575332
       3294.6971      0.83905108
       3295.6992      0.83981267
       3296.7012      0.78869980
       3297.7033      0.81837403
       3298.7053      0.88005378
       3299.7074      0.88510889
       3300.7095      0.83185057
       3301.7115      0.73925751
       3302.7136      0.82213668
       3303.7156      0.82597910
       3304.7177      0.84428684
       3305.7198      0.87062958
       3306.7218      0.89166650
       3307.7239      0.80993314
       3308.7259      0.74626589
       3309.7280      0.81635436
       3310.7301      0.81161521
       3311.7321      0.73234688
       3312.7342      0.80710659
       3313.7363      0.79910427
       3314.7383      0.81415403
       3315.7404      0.74073596
       3316.7424      0.79939473
       3317.7445      0.81393513
       3318.7466      0.74608045
       3319.7486      0.80462879
       3320.7507      0.84447715
       3321.7527      0.76920976
       3322.7548      0.79144612
       3323.7569      0.73786105
       3324.7589      0.74573706
       3325.7610      0.81407251
       3326.7630      0.81475621
       3327.7651      0.79280966
       3328.7672      0.74653573
       3329.7692      0.81356506
       3330.7713      0.83049404
       3331.7734      0.82853150
       3332.7754      0.82057471
       3333.7775      0.90981969
       3334.7795      0.90796076
       3335.7816      0.84915937
       3336.7837      0.82675255
       3337.7857      0.91405175
       3338.7878      0.85810894
       3339.7898      0.91528666
       3340.7919      0.83935172
       3341.7940      0.85611117
       3342.7960      0.88516999
       3343.7981      0.86201892
       3344.8001      0.89569782
       3345.8022      0.82357858
       3346.8043      0.77115703
       3347.8063      0.78327607
       3348.8084      0.87111223
       3349.8105      0.79106941
       3350.8125      0.83475693
       3351.8146      0.81431229
       3352.8166      0.82094016
       3353.8187      0.75314529
       3354.8208      0.82895940
       3355.8228      0.82765273
       3356.8249      0.85380842
       3357.8269      0.81137648
       3358.8290      0.97590497
       3359.8311      0.86306562
       3360.8331      0.85205181
       3361.8352      0.81936549
       3362.8372      0.85045415
       3363.8393      0.80233738
       3364.8414      0.73653077
       3365.8434      0.92727312
       3366.8455      0.83385589
       3367.8476      0.78735533
       3368.8496      0.89928972
       3369.8517      0.83840436
       3370.8537      0.90882995
       3371.8558      0.89317136
       3372.8579      0.87436388
       3373.8599      0.88208811
       3374.8620      0.84284865
       3375.8640      0.81192439
       3376.8661      0.87112599
       3377.8682      0.82170734
       3378.8702      0.74808135
       3379.8723      0.90548053
       3380.8743      0.81583941
       3381.8764      0.87656522
       3382.8785      0.74256586
       3383.8805      0.81967995
       3384.8826      0.83442622
       3385.8847      0.73717673
       3386.8867      0.77338051
       3387.8888      0.67002842
       3388.8908      0.72690829
       3389.8929      0.79060685
       3390.8950      0.74308064
       3391.8970      0.78386866
       3392.8991      0.79620755
       3393.9011      0.80423775
       3394.9032      0.82153713
       3395.9053      0.80090189
       3396.9073      0.73936824
       3397.9094      0.79766038
       3398.9114      0.89249780
       3399.9135      0.72990632
       3400.9156      0.67700209
       3401.9176      0.84006162
       3402.9197      0.82788842
       3403.9218      0.81350235
       3404.9238      0.79718369
       3405.9259      0.78413444
       3406.9279      0.81516366
       3407.9300      0.72706536
       3408.9321      0.79249535
       3409.9341      0.78809684
       3410.9362      0.80447793
       3411.9382      0.77628650
       3412.9403      0.84657160
       3413.9424      0.79251004
       3414.9444      0.77214014
       3415.9465      0.72397664
       3416.9485      0.83975675
       3417.9506      0.84715044
       3418.9527      0.88013118
       3419.9547      0.74847558
       3420.9568      0.79420760
       3421.9589      0.76551019
       3422.9609      0.81494814
       3423.9630      0.77024307
       3424.9650      0.80205030
       3425.9671      0.77532294
       3426.9692      0.83783662
       3427.9712      0.90915018
       3428.9733      0.82747339
       3429.9753      0.88847504
       3430.9774      0.77681309
       3431.9795      0.76582767
       3432.9815      0.90471871
       3433.9836      0.95018531
       3434.9856      0.92270465
       3435.9877      0.88118333
       3436.9898      0.86758942
       3437.9918      0.97685564
       3438.9939      0.84227850
       3439.9959      0.92545259
       3440.9980      0.98447314
       3442.0001      0.93125947
       3443.0021      0.90119956
       3444.0042      0.93128844
       3445.0063      0.90872120
       3446.0083      0.94671813
       3447.0104      0.89773917
       3448.0124      0.90834036
       3449.0145      0.97629698
       3450.0166      0.90954599
       3451.0186      0.93097471
       3452.0207      0.82230759
       3453.0227      0.87376914
       3454.0248      0.84712457
       3455.0269      0.87350387
       3456.0289      0.89341395
       3457.0310      0.84016118
       3458.0330      0.83296770
       3459.0351      0.82877470
       3460.0372      0.86417556
       3461.0392      0.85225808
       3462.0413      0.85260928
       3463.0434      0.92569909
       3464.0454      0.89851781
       3465.0475      0.88616667
       3466.0495      0.90612357
       3467.0516      0.86511789
       3468.0537      0.95800145
       3469.0557      0.89947963
       3470.0578      0.77214087
       3471.0598      0.82465972
       3472.0619      0.81506807
       3473.0640      0.80459139
       3474.0660      0.86337032
       3475.0681      0.83149712
       3476.0701      0.79180545
       3477.0722      0.86816364
       3478.0743      0.86166412
       3479.0763      0.89720754
       3480.0784      0.79336244
       3481.0805      0.84337023
       3482.0825      0.80744371
       3483.0846      0.83122898
       3484.0866      0.84528563
       3485.0887      0.92923130
       3486.0908      0.85145654
       3487.0928      0.86607938
       3488.0949      0.80838847
       3489.0969      0.85269736
       3490.0990      0.84632221
       3491.1011      0.83782424
       3492.1031      0.89033501
       3493.1052      0.87110907
       3494.1072      0.88190148
       3495.1093      0.81599894
       3496.1114      0.92667746
       3497.1134      0.92024667
       3498.1155      0.92044577
       3499.1176      0.91416921
       3500.1196      0.93252285
       3501.1217      0.94538624
       3502.1237      0.96203464
       3503.1258       1.0113485
       3504.1279      0.89314207
       3505.1299      0.92420361
       3506.1320      0.90641142
       3507.1340      0.91779801
       3508.1361      0.81078504
       3509.1382      0.96088492
       3510.1402      0.92534219
       3511.1423      0.94095267
       3512.1443      0.88167105
       3513.1464      0.83757485
       3514.1485      0.95524390
       3515.1505      0.89638908
       3516.1526       1.0623508
       3517.1547      0.96042435
       3518.1567      0.93230667
       3519.1588      0.96457834
       3520.1608      0.84716875
       3521.1629      0.94574363
       3522.1650      0.93101475
       3523.1670      0.85390547
       3524.1691      0.92737367
       3525.1711      0.88174605
       3526.1732      0.87582688
       3527.1753      0.92060116
       3528.1773      0.88833439
       3529.1794      0.90710366
       3530.1814      0.90222528
       3531.1835      0.92636636
       3532.1856      0.93899300
       3533.1876      0.90928038
       3534.1897      0.92269744
       3535.1918      0.98676937
       3536.1938      0.92848485
       3537.1959      0.94581439
       3538.1979       1.0075219
       3539.2000      0.95120481
       3540.2021      0.88964725
       3541.2041      0.96274075
       3542.2062      0.99486104
       3543.2082      0.93280981
       3544.2103      0.92104065
       3545.2124      0.98896990
       3546.2144      0.89203815
       3547.2165      0.98425427
       3548.2185      0.93301445
       3549.2206      0.91791007
       3550.2227       1.0098582
       3551.2247      0.92223032
       3552.2268       1.0005858
       3553.2289      0.94898400
       3554.2309      0.88568707
       3555.2330      0.93793159
       3556.2350      0.90846208
       3557.2371      0.87300322
       3558.2392      0.99698824
       3559.2412      0.95719696
       3560.2433      0.99138375
       3561.2453      0.90737435
       3562.2474      0.95401130
       3563.2495      0.86459747
       3564.2515      0.87373182
       3565.2536      0.90613077
       3566.2556      0.91419145
       3567.2577      0.93480383
       3568.2598      0.89255346
       3569.2618      0.88666823
       3570.2639      0.85570522
       3571.2659      0.86351962
       3572.2680      0.91328780
       3573.2701      0.85671638
       3574.2721      0.86870727
       3575.2742      0.85858957
       3576.2763      0.88125055
       3577.2783      0.90110512
       3578.2804      0.87000255
       3579.2824      0.86790426
       3580.2845      0.85757783
       3581.2866      0.89993352
       3582.2886      0.94214230
       3583.2907      0.78716881
       3584.2927      0.86023372
       3585.2948      0.86180433
       3586.2969      0.84285825
       3587.2989      0.81285204
       3588.3010      0.90467081
       3589.3030      0.85392501
       3590.3051      0.89034090
       3591.3072      0.87535713
       3592.3092      0.96325279
       3593.3113      0.92355749
       3594.3134       1.0014650
       3595.3154       1.0004387
       3596.3175       1.0177320
       3597.3195      0.92128268
       3598.3216       1.0192319
       3599.3237       1.0249741
       3600.3257      0.95796319
       3601.3278      0.99123639
       3602.3298      0.94741921
       3603.3319      0.93850269
       3604.3340      0.93258636
       3605.3360      0.83410529
       3606.3381      0.89186301
       3607.3401      0.98682376
       3608.3422      0.90073405
       3609.3443      0.94594995
       3610.3463      0.95804173
       3611.3484      0.96818565
       3612.3505       1.0020745
       3613.3525      0.90244017
       3614.3546      0.93986605
       3615.3566      0.93204057
       3616.3587      0.94876073
       3617.3608      0.91834767
       3618.3628      0.94860685
       3619.3649      0.94499282
       3620.3669      0.96015864
       3621.3690      0.90169227
       3622.3711      0.98185406
       3623.3731      0.97776736
       3624.3752      0.97939038
       3625.3772       1.0734947
       3626.3793       1.0591193
       3627.3814       1.0472573
       3628.3834       1.0492714
       3629.3855       1.0531971
       3630.3876       1.0245512
       3631.3896       1.0035356
       3632.3917      0.95694946
       3633.3937      0.97786323
       3634.3958      0.94419026
       3635.3979       1.0019895
       3636.3999       1.0019702
       3637.4020       1.0147408
       3638.4040       1.0991546
       3639.4061       1.0545090
       3640.4082       1.0843839
       3641.4102       1.1455970
       3642.4123       1.0472624
       3643.4143       1.0654795
       3644.4164      0.98004601
       3645.4185      0.95630382
       3646.4205      0.99066685
       3647.4226      0.91676076
       3648.4247      0.98744034
       3649.4267      0.93839966
       3650.4288      0.92587259
       3651.4308      0.91453984
       3652.4329      0.94581135
       3653.4350       1.0235006
       3654.4370       1.0577130
       3655.4391      0.99094656
       3656.4411       1.0636222
       3657.4432       1.0093940
       3658.4453      0.97709527
       3659.4473      0.91989742
       3660.4494      0.99226639
       3661.4514      0.97925889
       3662.4535       1.0161528
       3663.4556       1.0390938
       3664.4576       1.0638819
       3665.4597       1.0690479
       3666.4618       1.0624556
       3667.4638       1.1086107
       3668.4659       1.0678953
       3669.4679       1.0168799
       3670.4700       1.0677071
       3671.4721       1.0914819
       3672.4741       1.1371784
       3673.4762       1.0356212
       3674.4782       1.1404330
       3675.4803       1.0730973
       3676.4824       1.0554995
       3677.4844      0.98636437
       3678.4865       1.0389105
       3679.4885       1.0227931
       3680.4906      0.99054984
       3681.4927       1.0181338
       3682.4947       1.0745246
       3683.4968       1.0179837
       3684.4989      0.98846306
       3685.5009       1.0735150
       3686.5030       1.0409426
       3687.5050       1.0372784
       3688.5071       1.0589306
       3689.5092       1.0247809
       3690.5112       1.0655856
       3691.5133       1.1034643
       3692.5153       1.0598176
       3693.5174       1.0556092
       3694.5195       1.1053949
       3695.5215       1.1257807
       3696.5236       1.0840889
       3697.5256       1.0338430
       3698.5277       1.0430291
       3699.5298       1.1015566
       3700.5318       1.1668535
       3701.5339       1.1497661
       3702.5360       1.1339668
       3703.5380       1.1252361
       3704.5401       1.0301643
       3705.5421      0.99550058
       3706.5442       1.0687506
       3707.5463      0.93619566
       3708.5483       1.0852017
       3709.5504       1.0520740
       3710.5524       1.0254155
       3711.5545       1.0997327
       3712.5566       1.0653518
       3713.5586       1.1364812
       3714.5607       1.0974125
       3715.5627       1.2374706
       3716.5648       1.1451977
       3717.5669       1.1652219
       3718.5689       1.1545109
       3719.5710       1.0040695
       3720.5730       1.1363241
       3721.5751       1.2788289
       3722.5772       1.4555885
       3723.5792       1.5840580
       3724.5813       1.9262204
       3725.5834       2.0635969
       3726.5854       2.2491943
       3727.5875       2.3504295
       3728.5895       2.2360078
       3729.5916       2.1359514
       3730.5937       1.8821535
       3731.5957       1.6460770
       3732.5978       1.3554596
       3733.5998       1.0782004
       3734.6019       1.0353950
       3735.6040       1.1209047
       3736.6060       1.1127484
       3737.6081       1.2710289
       3738.6101       1.1699337
       3739.6122       1.2754645
       3740.6143       1.1982765
       3741.6163       1.3113027
       3742.6184       1.3350487
       3743.6205       1.2895500
       3744.6225       1.2218225
       3745.6246       1.1556005
       3746.6266       1.0658564
       3747.6287       1.0882572
       3748.6308       1.0638927
       3749.6328       1.2032663
       3750.6349       1.1232907
       3751.6369       1.2830451
       3752.6390       1.2244235
       3753.6411       1.2920339
       3754.6431       1.2821006
       3755.6452       1.2496854
       3756.6472       1.3703364
       3757.6493       1.3462742
       3758.6514       1.3362193
       3759.6534       1.3466237
       3760.6555       1.3159966
       3761.6576       1.4269365
       3762.6596       1.3708217
       3763.6617       1.2692066
       3764.6637       1.3818350
       3765.6658       1.3002205
       3766.6679       1.2344324
       3767.6699       1.2845215
       3768.6720       1.2856487
       3769.6740       1.1802157
       3770.6761       1.2846830
       3771.6782       1.2758343
       3772.6802       1.3492574
       3773.6823       1.4258658
       3774.6843       1.3850771
       3775.6864       1.4268021
       3776.6885       1.5929349
       3777.6905       1.5447927
       3778.6926       1.6341622
       3779.6947       1.5948746
       3780.6967       1.6933662
       3781.6988       1.6165045
       3782.7008       1.6532578
       3783.7029       1.6719297
       3784.7050       1.5842455
       3785.7070       1.6261897
       3786.7091       1.5482026
       3787.7111       1.4718716
       3788.7132       1.4731219
       3789.7153       1.5111857
       3790.7173       1.4820364
       3791.7194       1.4059906
       3792.7214       1.3461811
       3793.7235       1.4410188
       3794.7256       1.3482179
       3795.7276       1.2671702
       3796.7297       1.2250413
       3797.7318       1.3370137
       3798.7338       1.2250605
       3799.7359       1.3791009
       3800.7379       1.4202124
       3801.7400       1.4243342
       3802.7421       1.4629914
       3803.7441       1.5442687
       3804.7462       1.6252721
       3805.7482       1.7625253
       3806.7503       1.6752083
       3807.7524       1.6865766
       3808.7544       1.7508433
       3809.7565       1.5926919
       3810.7585       1.7296713
       3811.7606       1.6582665
       3812.7627       1.7222828
       3813.7647       1.5327832
       3814.7668       1.6044413
       3815.7689       1.4386362
       3816.7709       1.5146868
       3817.7730       1.5596120
       3818.7750       1.6169266
       3819.7771       1.5015998
       3820.7792       1.5114232
       3821.7812       1.5140313
       3822.7833       1.3996532
       3823.7853       1.5217499
       3824.7874       1.3642514
       3825.7895       1.3502659
       3826.7915       1.2759711
       3827.7936       1.4146353
       3828.7956       1.3864471
       3829.7977       1.2743216
       3830.7998       1.2306491
       3831.8018       1.1754371
       3832.8039       1.1055300
       3833.8060       1.1398665
       3834.8080       1.1677987
       3835.8101       1.3115663
       3836.8121       1.1405685
       3837.8142       1.2585787
       3838.8163       1.3663212
       3839.8183       1.3513595
       3840.8204       1.4331162
       3841.8224       1.6354661
       3842.8245       1.5368914
       3843.8266       1.6752367
       3844.8286       1.5619707
       3845.8307       1.5892149
       3846.8327       1.5782875
       3847.8348       1.7074483
       3848.8369       1.7069269
       3849.8389       1.7656252
       3850.8410       1.7233478
       3851.8430       1.7489191
       3852.8451       1.7601416
       3853.8472       1.7168903
       3854.8492       1.7171598
       3855.8513       1.6872634
       3856.8534       1.7143212
       3857.8554       1.7366710
       3858.8575       1.6242033
       3859.8595       1.5828883
       3860.8616       1.7065496
       3861.8637       1.6883325
       3862.8657       1.7080463
       3863.8678       1.7492672
       3864.8698       1.8374557
       3865.8719       1.8407702
       3866.8740       1.8986624
       3867.8760       1.8599619
       3868.8781       1.7668886
       3869.8801       1.7065447
       3870.8822       1.8027100
       3871.8843       1.7422244
       3872.8863       1.7712041
       3873.8884       1.7569536
       3874.8905       1.6250673
       3875.8925       1.6219662
       3876.8946       1.6226964
       3877.8966       1.6208423
       3878.8987       1.5665113
       3879.9008       1.5521691
       3880.9028       1.5313918
       3881.9049       1.4648980
       3882.9069       1.4950209
       3883.9090       1.5354883
       3884.9111       1.4438326
       3885.9131       1.4404262
       3886.9152       1.5083851
       3887.9172       1.4069528
       3888.9193       1.4708905
       3889.9214       1.5851046
       3890.9234       1.5405353
       3891.9255       1.6014120
       3892.9276       1.5320669
       3893.9296       1.5152213
       3894.9317       1.7218316
       3895.9337       1.7500860
       3896.9358       1.7492068
       3897.9379       1.7901538
       3898.9399       1.6990648
       3899.9420       1.7903802
       3900.9440       1.7770532
       3901.9461       1.7950754
       3902.9482       1.7761969
       3903.9502       1.7998728
       3904.9523       1.8825815
       3905.9543       1.7312376
       3906.9564       1.8994481
       3907.9585       1.9657098
       3908.9605       1.9355201
       3909.9626       2.0530602
       3910.9647       2.0334011
       3911.9667       1.9491052
       3912.9688       1.9075078
       3913.9708       2.1157242
       3914.9729       1.9735638
       3915.9750       1.8972675
       3916.9770       1.8647118
       3917.9791       1.8672384
       3918.9811       1.9717948
       3919.9832       1.8577228
       3920.9853       1.8322016
       3921.9873       1.7182161
       3922.9894       1.7611401
       3923.9914       1.7994224
       3924.9935       1.6574338
       3925.9956       1.7371631
       3926.9976       1.5924228
       3927.9997       1.6133112
       3929.0018       1.3100450
       3930.0038       1.3018101
       3931.0059       1.2577082
       3932.0079       1.2805438
       3933.0100       1.1819081
       3934.0121       1.3183348
       3935.0141       1.4958610
       3936.0162       1.4058337
       3937.0182       1.6681766
       3938.0203       1.5990298
       3939.0224       1.6959922
       3940.0244       1.8270193
       3941.0265       1.7912772
       3942.0285       1.7595054
       3943.0306       1.8982735
       3944.0327       1.8736675
       3945.0347       1.9531333
       3946.0368       1.7967262
       3947.0389       1.9406096
       3948.0409       1.8656817
       3949.0430       1.8913010
       3950.0450       2.0782680
       3951.0471       1.9473691
       3952.0492       1.9089567
       3953.0512       1.8906984
       3954.0533       1.9686185
       3955.0553       1.9060925
       3956.0574       1.8744621
       3957.0595       1.7973293
       3958.0615       1.7329770
       3959.0636       1.7365153
       3960.0656       1.6020532
       3961.0677       1.4055589
       3962.0698       1.3801974
       3963.0718       1.3861228
       3964.0739       1.3155944
       3965.0760       1.2375554
       3966.0780       1.1540787
       3967.0801       1.2353404
       3968.0821       1.3271701
       3969.0842       1.2933029
       3970.0863       1.3733619
       3971.0883       1.4583883
       3972.0904       1.4869465
       3973.0924       1.5626178
       3974.0945       1.6188005
       3975.0966       1.7569765
       3976.0986       1.8196146
       3977.1007       1.8755905
       3978.1027       1.8889352
       3979.1048       2.0266623
       3980.1069       1.9615472
       3981.1089       1.9882205
       3982.1110       2.1686273
       3983.1130       2.0781285
       3984.1151       2.1233835
       3985.1172       2.0836056
       3986.1192       2.1230639
       3987.1213       2.2309351
       3988.1234       2.1818198
       3989.1254       2.1134198
       3990.1275       2.1254933
       3991.1295       2.1591233
       3992.1316       2.2099905
       3993.1337       2.2123424
       3994.1357       2.2566796
       3995.1378       2.2741484
       3996.1398       2.1804103
       3997.1419       2.2889488
       3998.1440       2.2700072
       3999.1460       2.2220912
       4000.1481       2.2653182
       4001.1501       2.2299376
       4002.1522       2.1648081
       4003.1543       2.2519799
       4004.1563       2.2420818
       4005.1584       2.3196572
       4006.1605       2.2914087
       4007.1625       2.3355282
       4008.1646       2.3747787
       4009.1666       2.3481063
       4010.1687       2.4608438
       4011.1708       2.3217164
       4012.1728       2.3409962
       4013.1749       2.3556005
       4014.1769       2.4272668
       4015.1790       2.4215797
       4016.1811       2.3942038
       4017.1831       2.4347462
       4018.1852       2.4453156
       4019.1872       2.4143334
       4020.1893       2.4252846
       4021.1914       2.3651015
       4022.1934       2.3809169
       4023.1955       2.4179157
       4024.1976       2.3746028
       4025.1996       2.3398778
       4026.2017       2.2497611
       4027.2037       2.2930546
       4028.2058       2.2214488
       4029.2079       2.2079692
       4030.2099       2.2552366
       4031.2120       2.2968010
       4032.2140       2.3476224
       4033.2161       2.4088640
       4034.2182       2.5313239
       4035.2202       2.4665420
       4036.2223       2.4472149
       4037.2243       2.3330183
       4038.2264       2.4009371
       4039.2285       2.4369257
       4040.2305       2.3554809
       4041.2326       2.3088579
       4042.2347       2.3640756
       4043.2367       2.3736374
       4044.2388       2.2525657
       4045.2408       2.3296952
       4046.2429       2.4458808
       4047.2450       2.4078238
       4048.2470       2.4210238
       4049.2491       2.3059548
       4050.2511       2.3352555
       4051.2532       2.2634395
       4052.2553       2.3861774
       4053.2573       2.4788925
       4054.2594       2.2612859
       4055.2614       2.3095214
       4056.2635       2.3043237
       4057.2656       2.3408397
       4058.2676       2.2979435
       4059.2697       2.2259701
       4060.2718       2.2138060
       4061.2738       2.4250888
       4062.2759       2.3293774
       4063.2779       2.2892861
       4064.2800       2.3118301
       4065.2821       2.1739610
       4066.2841       2.3191995
       4067.2862       2.4666881
       4068.2882       2.3149467
       4069.2903       2.3986595
       4070.2924       2.2993859
       4071.2944       2.2674321
       4072.2965       2.2290798
       4073.2985       2.2421790
       4074.3006       2.2686878
       4075.3027       2.2619364
       4076.3047       2.2440854
       4077.3068       2.3933052
       4078.3089       2.3088448
       4079.3109       2.3736605
       4080.3130       2.3399024
       4081.3150       2.5089212
       4082.3171       2.4463960
       4083.3192       2.4463553
       4084.3212       2.4396571
       4085.3233       2.3039317
       4086.3253       2.3276386
       4087.3274       2.3763380
       4088.3295       2.2856093
       4089.3315       2.2141087
       4090.3336       2.1391460
       4091.3356       2.1324480
       4092.3377       2.0873557
       4093.3398       2.0434030
       4094.3418       2.0828517
       4095.3439       2.0832227
       4096.3460       2.0616883
       4097.3480       2.0504326
       4098.3501       2.1147711
       4099.3521       2.1849840
       4100.3542       2.0641226
       4101.3563       2.0657313
       4102.3583       2.0840342
       4103.3604       2.2451391
       4104.3624       2.2075844
       4105.3645       2.2712687
       4106.3666       2.3605093
       4107.3686       2.2683482
       4108.3707       2.3055215
       4109.3727       2.4346277
       4110.3748       2.4771893
       4111.3769       2.4510510
       4112.3789       2.4712443
       4113.3810       2.4057883
       4114.3830       2.5287277
       4115.3851       2.5700784
       4116.3872       2.5278742
       4117.3892       2.6326809
       4118.3913       2.6847534
       4119.3934       2.5099056
       4120.3954       2.4764021
       4121.3975       2.4857184
       4122.3995       2.4758175
       4123.4016       2.4107200
       4124.4037       2.4309396
       4125.4057       2.3730473
       4126.4078       2.4242860
       4127.4098       2.3292630
       4128.4119       2.3955790
       4129.4140       2.3050265
       4130.4160       2.4252637
       4131.4181       2.3889441
       4132.4201       2.5237476
       4133.4222       2.4850021
       4134.4243       2.3414867
       4135.4263       2.3600284
       4136.4284       2.4584657
       4137.4305       2.4117562
       4138.4325       2.3386624
       4139.4346       2.4969714
       4140.4366       2.3851802
       4141.4387       2.4502190
       4142.4408       2.4651036
       4143.4428       2.5768609
       4144.4449       2.5036257
       4145.4469       2.3348321
       4146.4490       2.5277276
       4147.4511       2.4391576
       4148.4531       2.4438244
       4149.4552       2.3311058
       4150.4572       2.4550866
       4151.4593       2.6120944
       4152.4614       2.4750224
       4153.4634       2.3873453
       4154.4655       2.4732742
       4155.4676       2.6534931
       4156.4696       2.5432956
       4157.4717       2.6041931
       4158.4737       2.5226452
       4159.4758       2.5597497
       4160.4779       2.4919604
       4161.4799       2.6121717
       4162.4820       2.5384544
       4163.4840       2.5187518
       4164.4861       2.4359410
       4165.4882       2.4368398
       4166.4902       2.3579595
       4167.4923       2.4478804
       4168.4943       2.3288794
       4169.4964       2.4189876
       4170.4985       2.4957172
       4171.5005       2.5110416
       4172.5026       2.5214162
       4173.5047       2.4887321
       4174.5067       2.4443914
       4175.5088       2.5398868
       4176.5108       2.4426357
       4177.5129       2.4783236
       4178.5150       2.5498657
       4179.5170       2.4221768
       4180.5191       2.5158343
       4181.5211       2.5342432
       4182.5232       2.6189553
       4183.5253       2.5616139
       4184.5273       2.6242340
       4185.5294       2.6968395
       4186.5314       2.5814280
       4187.5335       2.5592596
       4188.5356       2.5520593
       4189.5376       2.4832278
       4190.5397       2.3797892
       4191.5418       2.5186752
       4192.5438       2.4974929
       4193.5459       2.4468410
       4194.5479       2.4455722
       4195.5500       2.5449448
       4196.5521       2.4388138
       4197.5541       2.4223276
       4198.5562       2.5113653
       4199.5582       2.5059795
       4200.5603       2.4995806
       4201.5624       2.6489298
       4202.5644       2.6383992
       4203.5665       2.6545071
       4204.5685       2.6377419
       4205.5706       2.5516349
       4206.5727       2.5091369
       4207.5747       2.5918152
       4208.5768       2.5634595
       4209.5789       2.5485974
       4210.5809       2.5647270
       4211.5830       2.5615179
       4212.5850       2.5315047
       4213.5871       2.6668772
       4214.5892       2.6280470
       4215.5912       2.5243349
       4216.5933       2.5511129
       4217.5953       2.3207334
       4218.5974       2.2789843
       4219.5995       2.2737582
       4220.6015       2.3170529
       4221.6036       2.3814614
       4222.6056       2.4078904
       4223.6077       2.4906638
       4224.6098       2.6055467
       4225.6118       2.5299839
       4226.6139       2.5300133
       4227.6160       2.4939555
       4228.6180       2.5472860
       4229.6201       2.4467989
       4230.6221       2.4965492
       4231.6242       2.6224277
       4232.6263       2.6309068
       4233.6283       2.5882534
       4234.6304       2.6408230
       4235.6324       2.7068655
       4236.6345       2.7264004
       4237.6366       2.8017673
       4238.6386       2.6311431
       4239.6407       2.4732801
       4240.6427       2.4469682
       4241.6448       2.5276304
       4242.6469       2.4924782
       4243.6489       2.5566538
       4244.6510       2.5278248
       4245.6530       2.4946610
       4246.6551       2.5386337
       4247.6572       2.5568476
       4248.6592       2.5427436
       4249.6613       2.5933274
       4250.6634       2.5435231
       4251.6654       2.5117862
       4252.6675       2.5173833
       4253.6695       2.6351069
       4254.6716       2.5611673
       4255.6737       2.6437253
       4256.6757       2.6251651
       4257.6778       2.7560858
       4258.6798       2.8020178
       4259.6819       2.7400520
       4260.6840       2.5698465
       4261.6860       2.5001148
       4262.6881       2.4209737
       4263.6901       2.4790047
       4264.6922       2.5440292
       4265.6943       2.5391768
       4266.6963       2.4451746
       4267.6984       2.5071081
       4268.7005       2.5134971
       4269.7025       2.4754594
       4270.7046       2.5648136
       4271.7066       2.6812962
       4272.7087       2.5996005
       4273.7108       2.5831368
       4274.7128       2.6134909
       4275.7149       2.5019549
       4276.7169       2.5582149
       4277.7190       2.5332777
       4278.7211       2.4792604
       4279.7231       2.4617829
       4280.7252       2.3895158
       4281.7272       2.4453376
       4282.7293       2.4405939
       4283.7314       2.4718760
       4284.7334       2.4719909
       4285.7355       2.4806640
       4286.7376       2.4857769
       4287.7396       2.4840584
       4288.7417       2.4158108
       4289.7437       2.3229891
       4290.7458       2.3350138
       4291.7479       2.2749512
       4292.7499       2.3155810
       4293.7520       2.1846288
       4294.7540       2.2103325
       4295.7561       2.2752413
       4296.7582       2.2525145
       4297.7602       2.1958359
       4298.7623       2.3485900
       4299.7643       2.1493930
       4300.7664       2.2564097
       4301.7685       2.3067010
       4302.7705       2.4720524
       4303.7726       2.4891725
       4304.7747       2.6623377
       4305.7767       2.5086578
       4306.7788       2.5440352
       4307.7808       2.7377977
       4308.7829       2.7293173
       4309.7850       2.7522074
       4310.7870       2.6345463
       4311.7891       2.7227490
       4312.7911       2.6141647
       4313.7932       2.5725263
       4314.7953       2.5975043
       4315.7973       2.5119893
       4316.7994       2.5684979
       4317.8014       2.5838261
       4318.8035       2.5071403
       4319.8056       2.4789660
       4320.8076       2.5803890
       4321.8097       2.5726102
       4322.8118       2.6424547
       4323.8138       2.4912500
       4324.8159       2.5305616
       4325.8179       2.5577980
       4326.8200       2.6958309
       4327.8221       2.7328226
       4328.8241       2.8052514
       4329.8262       2.6895091
       4330.8282       2.6617642
       4331.8303       2.6632701
       4332.8324       2.7443019
       4333.8344       2.6716885
       4334.8365       2.6872794
       4335.8385       2.5152858
       4336.8406       2.5738292
       4337.8427       2.5338026
       4338.8447       2.5888264
       4339.8468       2.5549233
       4340.8489       2.6012028
       4341.8509       2.5948427
       4342.8530       2.5602847
       4343.8550       2.6656749
       4344.8571       2.6007522
       4345.8592       2.6363273
       4346.8612       2.8499163
       4347.8633       2.7821544
       4348.8653       2.7869977
       4349.8674       2.8994710
       4350.8695       2.8620172
       4351.8715       2.8459146
       4352.8736       2.9897734
       4353.8756       2.9528908
       4354.8777       2.7860322
       4355.8798       2.9011554
       4356.8818       2.8553220
       4357.8839       2.8720546
       4358.8860       2.8015940
       4359.8880       2.7511395
       4360.8901       2.8172191
       4361.8921       2.7792747
       4362.8942       2.7918165
       4363.8963       2.7130390
       4364.8983       2.8102832
       4365.9004       2.7895589
       4366.9024       2.6879598
       4367.9045       2.7078993
       4368.9066       2.7360811
       4369.9086       2.7984368
       4370.9107       2.6558428
       4371.9127       2.6156462
       4372.9148       2.6316641
       4373.9169       2.5724316
       4374.9189       2.6633224
       4375.9210       2.6302716
       4376.9230       2.6973404
       4377.9251       2.7139693
       4378.9272       2.6685730
       4379.9292       2.7554677
       4380.9313       2.7940881
       4381.9334       2.7377907
       4382.9354       2.7733348
       4383.9375       2.9309095
       4384.9395       2.8299948
       4385.9416       2.9444769
       4386.9437       2.7882724
       4387.9457       2.8184066
       4388.9478       2.8885411
       4389.9498       2.8410985
       4390.9519       2.7670234
       4391.9540       2.6923646
       4392.9560       2.7056888
       4393.9581       2.7677310
       4394.9601       2.8073873
       4395.9622       2.8865386
       4396.9643       2.8331470
       4397.9663       2.8647428
       4398.9684       2.8910909
       4399.9705       2.8434028
       4400.9725       2.9731699
       4401.9746       2.8735345
       4402.9766       2.8558573
       4403.9787       2.9128396
       4404.9808       2.9075602
       4405.9828       2.9534680
       4406.9849       2.8823394
       4407.9869       2.8728383
       4408.9890       2.9598808
       4409.9911       2.9809851
       4410.9931       2.9223684
       4411.9952       2.9288177
       4412.9972       2.8787976
       4413.9993       2.9529222
       4415.0014       2.9193385
       4416.0034       2.8739485
       4417.0055       2.8354313
       4418.0076       3.0414327
       4419.0096       2.9649689
       4420.0117       2.8315417
       4421.0137       2.8457918
       4422.0158       2.9452405
       4423.0179       2.9758719
       4424.0199       2.9985452
       4425.0220       2.9557603
       4426.0240       3.0603546
       4427.0261       2.9876469
       4428.0282       2.9332017
       4429.0302       2.8812673
       4430.0323       2.9341999
       4431.0343       3.0150218
       4432.0364       2.9133563
       4433.0385       2.9155092
       4434.0405       3.0113758
       4435.0426       2.9677458
       4436.0447       3.0853622
       4437.0467       3.1995432
       4438.0488       3.0354066
       4439.0508       2.9431751
       4440.0529       2.9263336
       4441.0550       2.9585899
       4442.0570       2.8522854
       4443.0591       2.9056515
       4444.0611       2.7953337
       4445.0632       2.8268891
       4446.0653       2.9086107
       4447.0673       2.8565319
       4448.0694       2.8502689
       4449.0714       2.9835379
       4450.0735       2.9603548
       4451.0756       2.9751553
       4452.0776       2.9531148
       4453.0797       3.0610982
       4454.0818       3.0217956
       4455.0838       3.0183698
       4456.0859       2.9378729
       4457.0879       3.1178998
       4458.0900       3.0598847
       4459.0921       3.0780671
       4460.0941       3.1131853
       4461.0962       3.1691827
       4462.0982       3.2084311
       4463.1003       3.1834686
       4464.1024       3.0639672
       4465.1044       3.0390093
       4466.1065       3.0852956
       4467.1085       3.0697754
       4468.1106       3.0309923
       4469.1127       3.0180968
       4470.1147       3.1055711
       4471.1168       3.0772957
       4472.1189       3.1820070
       4473.1209       3.1818001
       4474.1230       3.1063467
       4475.1250       3.1254270
       4476.1271       3.0414948
       4477.1292       3.1251286
       4478.1312       3.1387938
       4479.1333       2.9771780
       4480.1353       3.0872161
       4481.1374       3.1393850
       4482.1395       3.1406473
       4483.1415       3.0709497
       4484.1436       3.1833797
       4485.1456       3.2038652
       4486.1477       3.2307180
       4487.1498       3.2945194
       4488.1518       3.3348865
       4489.1539       3.3553369
       4490.1560       3.3660957
       4491.1580       3.3715441
       4492.1601       3.3805591
       4493.1621       3.3574188
       4494.1642       3.3020254
       4495.1663       3.3519985
       4496.1683       3.3540785
       4497.1704       3.3395916
       4498.1724       3.3662039
       4499.1745       3.2836921
       4500.1766       3.2081507
       4501.1786       3.2057787
       4502.1807       3.1600859
       4503.1827       3.1785167
       4504.1848       3.1641965
       4505.1869       3.1483691
       4506.1889       3.1937089
       4507.1910       3.1652828
       4508.1931       3.1892668
       4509.1951       3.1420924
       4510.1972       3.0463804
       4511.1992       3.0274635
       4512.2013       3.0102575
       4513.2034       3.1483365
       4514.2054       3.1086264
       4515.2075       3.0646695
       4516.2095       3.0327322
       4517.2116       3.0017903
       4518.2137       3.0965018
       4519.2157       3.1568911
       4520.2178       3.0803079
       4521.2198       3.0821257
       4522.2219       3.1002038
       4523.2240       3.1760522
       4524.2260       3.3195397
       4525.2281       3.2767099
       4526.2301       3.1350752
       4527.2322       3.2040569
       4528.2343       3.0272670
       4529.2363       3.1265145
       4530.2384       3.1039974
       4531.2405       3.1664611
       4532.2425       3.1765260
       4533.2446       3.1916819
       4534.2466       3.1653952
       4535.2487       3.0916818
       4536.2508       3.1168022
       4537.2528       2.9710568
       4538.2549       3.1340900
       4539.2569       3.3062270
       4540.2590       3.2014123
       4541.2611       3.1598895
       4542.2631       3.2461736
       4543.2652       3.1949671
       4544.2672       3.3289132
       4545.2693       3.3074507
       4546.2714       3.2392867
       4547.2734       3.2899177
       4548.2755       3.4010244
       4549.2776       3.2266779
       4550.2796       3.2435127
       4551.2817       3.3549494
       4552.2837       3.3496512
       4553.2858       3.4136539
       4554.2879       3.4643127
       4555.2899       3.3463807
       4556.2920       3.2758728
       4557.2940       3.4176959
       4558.2961       3.3344986
       4559.2982       3.3095174
       4560.3002       3.4373335
       4561.3023       3.2543428
       4562.3043       3.2277385
       4563.3064       3.1454040
       4564.3085       3.2245164
       4565.3105       3.1449085
       4566.3126       3.1529069
       4567.3147       3.1751966
       4568.3167       3.2367475
       4569.3188       3.1782799
       4570.3208       3.1531138
       4571.3229       3.1694217
       4572.3250       3.2095541
       4573.3270       3.1881972
       4574.3291       3.2079658
       4575.3311       3.2334730
       4576.3332       3.1426668
       4577.3353       3.1294690
       4578.3373       3.1643861
       4579.3394       3.2352446
       4580.3414       3.1789923
       4581.3435       3.1034883
       4582.3456       3.2398413
       4583.3476       3.2275028
       4584.3497       3.2609155
       4585.3518       3.2735130
       4586.3538       3.3378477
       4587.3559       3.3268062
       4588.3579       3.3651680
       4589.3600       3.4221157
       4590.3621       3.3327499
       4591.3641       3.3924059
       4592.3662       3.4032767
       4593.3682       3.3755910
       4594.3703       3.3461092
       4595.3724       3.3305013
       4596.3744       3.4124092
       4597.3765       3.3328941
       4598.3785       3.2795046
       4599.3806       3.4346584
       4600.3827       3.3658028
       4601.3847       3.3446621
       4602.3868       3.4400426
       4603.3889       3.4096002
       4604.3909       3.4101435
       4605.3930       3.3620149
       4606.3950       3.4772602
       4607.3971       3.4406432
       4608.3992       3.3816310
       4609.4012       3.3895782
       4610.4033       3.3651403
       4611.4053       3.2731413
       4612.4074       3.3972275
       4613.4095       3.3802904
       4614.4115       3.3772233
       4615.4136       3.3546913
       4616.4156       3.3943495
       4617.4177       3.2473168
       4618.4198       3.0954161
       4619.4218       3.3697062
       4620.4239       3.2334215
       4621.4260       3.2989698
       4622.4280       3.3282873
       4623.4301       3.3521092
       4624.4321       3.3986893
       4625.4342       3.3384565
       4626.4363       3.2865019
       4627.4383       3.3310796
       4628.4404       3.1821457
       4629.4424       3.1412647
       4630.4445       3.3485790
       4631.4466       3.2736695
       4632.4486       3.2825888
       4633.4507       3.2475924
       4634.4527       3.3198156
       4635.4548       3.3235980
       4636.4569       3.3586171
       4637.4589       3.2454477
       4638.4610       3.2527619
       4639.4631       3.3309469
       4640.4651       3.2777161
       4641.4672       3.2774167
       4642.4692       3.4703553
       4643.4713       3.3069843
       4644.4734       3.2935478
       4645.4754       3.1510121
       4646.4775       3.1052969
       4647.4795       3.1387832
       4648.4816       3.1442874
       4649.4837       3.1350134
       4650.4857       3.2398065
       4651.4878       3.2209448
       4652.4898       3.2938878
       4653.4919       3.4121526
       4654.4940       3.4391317
       4655.4960       3.3907236
       4656.4981       3.4305173
       4657.5001       3.4005112
       4658.5022       3.3640929
       4659.5043       3.3019125
       4660.5063       3.3013331
       4661.5084       3.3774511
       4662.5105       3.3507466
       4663.5125       3.4461957
       4664.5146       3.4107985
       4665.5166       3.3792104
       4666.5187       3.4543427
       4667.5208       3.3448404
       4668.5228       3.3390009
       4669.5249       3.3830766
       4670.5269       3.4301131
       4671.5290       3.3973139
       4672.5311       3.3506643
       4673.5331       3.3685454
       4674.5352       3.3403095
       4675.5372       3.4162009
       4676.5393       3.3975249
       4677.5414       3.2770416
       4678.5434       3.2296085
       4679.5455       3.2401847
       4680.5476       3.2283796
       4681.5496       3.2845217
       4682.5517       3.3055573
       4683.5537       3.4281415
       4684.5558       3.2997391
       4685.5579       3.2845833
       4686.5599       3.2332814
       4687.5620       3.2342664
       4688.5640       3.3640078
       4689.5661       3.3560447
       4690.5682       3.4207515
       4691.5702       3.4239127
       4692.5723       3.2712258
       4693.5743       3.2909253
       4694.5764       3.3337649
       4695.5785       3.3551718
       4696.5805       3.3770024
       4697.5826       3.4626399
       4698.5847       3.4917174
       4699.5867       3.4490794
       4700.5888       3.5069473
       4701.5908       3.4437961
       4702.5929       3.4218279
       4703.5950       3.3886979
       4704.5970       3.3876633
       4705.5991       3.4310167
       4706.6011       3.3202261
       4707.6032       3.2594032
       4708.6053       3.3707805
       4709.6073       3.2920592
       4710.6094       3.3459555
       4711.6114       3.3840229
       4712.6135       3.4263925
       4713.6156       3.4908907
       4714.6176       3.3932500
       4715.6197       3.4448928
       4716.6218       3.5015889
       4717.6238       3.4222761
       4718.6259       3.4232606
       4719.6279       3.3857507
       4720.6300       3.4381064
       4721.6321       3.5128296
       4722.6341       3.4036964
       4723.6362       3.4231477
       4724.6382       3.5485384
       4725.6403       3.5414403
       4726.6424       3.4288390
       4727.6444       3.5783424
       4728.6465       3.5944798
       4729.6485       3.5497215
       4730.6506       3.4437526
       4731.6527       3.4449881
       4732.6547       3.3448946
       4733.6568       3.4075890
       4734.6589       3.4407539
       4735.6609       3.4961513
       4736.6630       3.3515668
       4737.6650       3.3123190
       4738.6671       3.4285036
       4739.6692       3.4003224
       4740.6712       3.3487587
       4741.6733       3.3429744
       4742.6753       3.2977585
       4743.6774       3.2825733
       4744.6795       3.3484593
       4745.6815       3.3535476
       4746.6836       3.4494466
       4747.6856       3.4229715
       4748.6877       3.4103286
       4749.6898       3.5183288
       4750.6918       3.4269762
       4751.6939       3.4636928
       4752.6960       3.6206285
       4753.6980       3.4381446
       4754.7001       3.5717449
       4755.7021       3.5879747
       4756.7042       3.4681929
       4757.7063       3.3594944
       4758.7083       3.5127240
       4759.7104       3.5380681
       4760.7124       3.4779438
       4761.7145       3.4578418
       4762.7166       3.2969062
       4763.7186       3.4793421
       4764.7207       3.5149998
       4765.7227       3.4698941
       4766.7248       3.4551829
       4767.7269       3.4969494
       4768.7289       3.4605144
       4769.7310       3.4654404
       4770.7331       3.4847610
       4771.7351       3.5699125
       4772.7372       3.4401325
       4773.7392       3.5294760
       4774.7413       3.5961552
       4775.7434       3.5587141
       4776.7454       3.5677413
       4777.7475       3.5372902
       4778.7495       3.5181874
       4779.7516       3.5103744
       4780.7537       3.4558844
       4781.7557       3.4386711
       4782.7578       3.4942324
       4783.7598       3.4984504
       4784.7619       3.5050269
       4785.7640       3.4417206
       4786.7660       3.4843164
       4787.7681       3.4837961
       4788.7701       3.4186754
       4789.7722       3.4457620
       4790.7743       3.4636436
       4791.7763       3.4431557
       4792.7784       3.5163879
       4793.7805       3.6109174
       4794.7825       3.5761966
       4795.7846       3.4806295
       4796.7866       3.5361474
       4797.7887       3.4147356
       4798.7908       3.4827745
       4799.7928       3.4264958
       4800.7949       3.4242803
       4801.7969       3.3560905
       4802.7990       3.3076797
       4803.8011       3.4590668
       4804.8031       3.4474598
       4805.8052       3.4745960
       4806.8072       3.4823615
       4807.8093       3.4700667
       4808.8114       3.3941710
       4809.8134       3.4221712
       4810.8155       3.2714362
       4811.8176       3.4379499
       4812.8196       3.5160610
       4813.8217       3.4167877
       4814.8237       3.2976999
       4815.8258       3.2073679
       4816.8279       3.2528343
       4817.8299       3.2398292
       4818.8320       3.1831567
       4819.8340       3.2841683
       4820.8361       3.3033430
       4821.8382       3.2901291
       4822.8402       3.2755903
       4823.8423       3.1846875
       4824.8443       3.2606913
       4825.8464       3.1171348
       4826.8485       3.0832617
       4827.8505       3.1727657
       4828.8526       3.2281284
       4829.8547       3.5000402
       4830.8567       3.7220156
       4831.8588       4.0643351
       4832.8608       4.2447188
       4833.8629       4.2723908
       4834.8650       4.4570068
       4835.8670       4.4815683
       4836.8691       4.5336746
       4837.8711       4.3244478
       4838.8732       3.9028086
       4839.8753       3.3171983
       4840.8773       3.1436781
       4841.8794       3.0843315
       4842.8814       3.0962855
       4843.8835       2.9505894
       4844.8856       2.9465509
       4845.8876       3.0048017
       4846.8897       3.0926864
       4847.8918       3.0310154
       4848.8938       3.1777598
       4849.8959       3.1793740
       4850.8979       3.2004923
       4851.9000       3.3042868
       4852.9021       3.2720959
       4853.9041       3.3182349
       4854.9062       3.3357682
       4855.9082       3.2238083
       4856.9103       3.2325588
       4857.9124       3.2051807
       4858.9144       3.2534621
       4859.9165       3.2667607
       4860.9185       3.2016965
       4861.9206       3.2749577
       4862.9227       3.1568000
       4863.9247       3.2029005
       4864.9268       3.3596823
       4865.9289       3.3385065
       4866.9309       3.4452745
       4867.9330       3.4686563
       4868.9350       3.4457903
       4869.9371       3.5302823
       4870.9392       3.4890236
       4871.9412       3.4722934
       4872.9433       3.5439393
       4873.9453       3.4166075
       4874.9474       3.3950861
       4875.9495       3.4470865
       4876.9515       3.5037173
       4877.9536       3.4140329
       4878.9556       3.3732506
       4879.9577       3.4386837
       4880.9598       3.4126109
       4881.9618       3.3764010
       4882.9639       3.3465088
       4883.9660       3.5187465
       4884.9680       3.3018850
       4885.9701       3.3872166
       4886.9721       3.4379980
       4887.9742       3.3362659
       4888.9763       3.2084745
       4889.9783       3.2600971
       4890.9804       3.1324329
       4891.9824       3.1273602
       4892.9845       3.1409038
       4893.9866       3.2311151
       4894.9886       3.2419491
       4895.9907       3.3598169
       4896.9927       3.4086051
       4897.9948       3.4188150
       4898.9969       3.4571480
       4899.9989       3.5041408
       4901.0010       3.4342362
       4902.0031       3.5871385
       4903.0051       3.2735864
       4904.0072       3.4174699
       4905.0092       3.4861860
       4906.0113       3.4350665
       4907.0134       3.3294863
       4908.0154       3.4136434
       4909.0175       3.3472098
       4910.0195       3.3012471
       4911.0216       3.3752825
       4912.0237       3.4965293
       4913.0257       3.4367465
       4914.0278       3.3780939
       4915.0298       3.5237282
       4916.0319       3.5137988
       4917.0340       3.5400001
       4918.0360       3.6902357
       4919.0381       3.6424908
       4920.0401       3.6941260
       4921.0422       3.5690627
       4922.0443       3.5077517
       4923.0463       3.6104901
       4924.0484       3.4902714
       4925.0505       3.5647634
       4926.0525       3.5497582
       4927.0546       3.5141108
       4928.0566       3.5557983
       4929.0587       3.6218026
       4930.0608       3.6778592
       4931.0628       3.6692673
       4932.0649       3.6928512
       4933.0669       3.7341563
       4934.0690       3.5084922
       4935.0711       3.4908644
       4936.0731       3.4303180
       4937.0752       3.3138050
       4938.0772       3.3632816
       4939.0793       3.4369282
       4940.0814       3.4644693
       4941.0834       3.4369610
       4942.0855       3.3968738
       4943.0876       3.5621763
       4944.0896       3.4513757
       4945.0917       3.4628562
       4946.0937       3.3385515
       4947.0958       3.3143841
       4948.0979       3.3337868
       4949.0999       3.1852778
       4950.1020       3.2891567
       4951.1040       3.2775130
       4952.1061       3.1444251
       4953.1082       3.2888392
       4954.1102       3.2888523
       4955.1123       3.3149128
       4956.1143       3.2417569
       4957.1164       3.3924845
       4958.1185       3.3339514
       4959.1205       3.3383742
       4960.1226       3.3312136
       4961.1247       3.4065571
       4962.1267       3.3843460
       4963.1288       3.3301064
       4964.1308       3.3778573
       4965.1329       3.3768158
       4966.1350       3.4764606
       4967.1370       3.4844313
       4968.1391       3.4724752
       4969.1411       3.3950158
       4970.1432       3.3501714
       4971.1453       3.4207867
       4972.1473       3.3794614
       4973.1494       3.5628918
       4974.1514       3.8230620
       4975.1535       3.9398008
       4976.1556       4.0624719
       4977.1576       4.0703124
       4978.1597       3.8538564
       4979.1618       3.8096243
       4980.1638       3.5631815
       4981.1659       3.2766810
       4982.1679       3.2836219
       4983.1700       3.2118432
       4984.1721       3.1953855
       4985.1741       3.2185139
       4986.1762       3.1393452
       4987.1782       3.1479111
       4988.1803       3.1900256
       4989.1824       3.1935353
       4990.1844       3.2550659
       4991.1865       3.2095399
       4992.1885       3.2714489
       4993.1906       3.3342705
       4994.1927       3.1670828
       4995.1947       3.2867834
       4996.1968       3.4818419
       4997.1989       3.4040852
       4998.2009       3.3647338
       4999.2030       3.4964144
       5000.2050       3.4062666
       5001.2071       3.5081439
       5002.2092       3.5646093
       5003.2112       3.4008047
       5004.2133       3.1789742
       5005.2153       3.1930090
       5006.2174       3.1882075
       5007.2195       3.1920946
       5008.2215       3.1907163
       5009.2236       3.2539965
       5010.2256       3.3389732
       5011.2277       3.2511438
       5012.2298       3.4086074
       5013.2318       3.3764304
       5014.2339       3.3670327
       5015.2360       3.4439603
       5016.2380       3.3965599
       5017.2401       3.2981339
       5018.2421       3.3330161
       5019.2442       3.3077499
       5020.2463       3.3924385
       5021.2483       3.4620864
       5022.2504       3.4553243
       5023.2524       3.5908383
       5024.2545       3.6169770
       5025.2566       3.6139386
       5026.2586       3.6159832
       5027.2607       3.4216804
       5028.2627       3.5293336
       5029.2648       3.5317001
       5030.2669       3.5738366
       5031.2689       3.5269701
       5032.2710       3.3422919
       5033.2731       3.2990438
       5034.2751       3.3195380
       5035.2772       3.3930291
       5036.2792       3.3804444
       5037.2813       3.3950703
       5038.2834       3.4277157
       5039.2854       3.2615918
       5040.2875       3.3711918
       5041.2895       3.4551164
       5042.2916       3.4091677
       5043.2937       3.3655336
       5044.2957       3.3472138
       5045.2978       3.2966834
       5046.2998       3.3138558
       5047.3019       3.3334661
       5048.3040       3.3791449
       5049.3060       3.2839515
       5050.3081       3.2930698
       5051.3101       3.3532333
       5052.3122       3.4922914
       5053.3143       3.4241445
       5054.3163       3.5432700
       5055.3184       3.4823442
       5056.3205       3.3886381
       5057.3225       3.4691308
       5058.3246       3.3591647
       5059.3266       3.4334213
       5060.3287       3.4462542
       5061.3308       3.4970185
       5062.3328       3.4018178
       5063.3349       3.3559698
       5064.3369       3.4972600
       5065.3390       3.3212727
       5066.3411       3.2583853
       5067.3431       3.2996997
       5068.3452       3.3309207
       5069.3472       3.3184453
       5070.3493       3.4804142
       5071.3514       3.3594102
       5072.3534       3.3041587
       5073.3555       3.3658430
       5074.3576       3.3812768
       5075.3596       3.3975520
       5076.3617       3.3484171
       5077.3637       3.4090263
       5078.3658       3.4196876
       5079.3679       3.4504669
       5080.3699       3.4214488
       5081.3720       3.4208474
       5082.3740       3.5460345
       5083.3761       3.5189350
       5084.3782       3.2363641
       5085.3802       3.2982456
       5086.3823       3.3900780
       5087.3843       3.3751171
       5088.3864       3.1737167
       5089.3885       3.1401646
       5090.3905       3.1077022
       5091.3926       3.2346171
       5092.3947       3.2160965
       5093.3967       3.2358728
       5094.3988       3.3548931
       5095.4008       3.2633360
       5096.4029       3.3616044
       5097.4050       3.3997783
       5098.4070       3.2954907
       5099.4091       3.3423883
       5100.4111       3.2721753
       5101.4132       3.3471932
       5102.4153       3.1781463
       5103.4173       3.1616171
       5104.4194       3.1238602
       5105.4214       3.0862058
       5106.4235       3.1182892
       5107.4256       3.1101956
       5108.4276       3.1676698
       5109.4297       3.1370255
       5110.4318       3.1662248
       5111.4338       3.1583202
       5112.4359       3.0060656
       5113.4379       2.9780581
       5114.4400       2.9708560
       5115.4421       3.0193364
       5116.4441       2.9223126
       5117.4462       3.1795260
       5118.4482       3.1349669
       5119.4503       3.0785607
       5120.4524       3.1305483
       5121.4544       3.1844355
       5122.4565       3.2019874
       5123.4585       3.2452271
       5124.4606       3.1124415
       5125.4627       3.0021292
       5126.4647       3.0155133
       5127.4668       2.8135427
       5128.4689       2.7470007
       5129.4709       2.7006607
       5130.4730       2.6679258
       5131.4750       2.6391184
       5132.4771       2.4837781
       5133.4792       2.5288783
       5134.4812       2.6276772
       5135.4833       2.6670295
       5136.4853       2.7471360
       5137.4874       2.7753840
       5138.4895       2.9048382
       5139.4915       2.8374347
       5140.4936       2.9028059
       5141.4956       2.8208927
       5142.4977       2.8538448
       5143.4998       2.7572023
       5144.5018       2.4863666
       5145.5039       1.9711926
       5146.5060       2.4144775
       5147.5080       3.0510350
       5148.5101       2.8476443
       5149.5121       3.1999730
       5150.5142       3.4806898
       5151.5163       4.4652352
       5152.5183       4.7015392
       5153.5204       3.3780536
       5154.5224       2.8832994
       5155.5245       2.7073000
       5156.5266       2.6730188
       5157.5286       2.8512350
       5158.5307       2.8145344
       5159.5327       2.8722283
       5160.5348       2.8334859
       5161.5369       2.9237159
       5162.5389       2.8029576
       5163.5410       2.7446890
       5550.2773       10.568173
       5551.3821       11.315038
       5552.4868       10.989847
       5553.5915       9.8199407
       5554.6963       9.0292387
       5555.8010       8.8553713
       5556.9057       8.6416375
       5558.0105       8.2593087
       5559.1152       8.1365410
       5560.2199       7.8984464
       5561.3247       8.0257205
       5562.4294       7.7401414
       5563.5341       8.2981282
       5564.6388       9.0649549
       5565.7436       8.8984315
       5566.8483       8.9031368
       5567.9530       8.7012984
       5569.0578       8.7803143
       5570.1625       8.8271641
       5571.2672       8.7450342
       5572.3720       8.8285081
       5573.4767       8.8703205
       5574.5814       8.8456546
       5575.6862       8.8701131
       5576.7909       9.0992384
       5577.8956       9.2014725
       5579.0004       9.2337517
       5580.1051       9.1884519
       5581.2098       9.1566451
       5582.3146       9.4379534
       5583.4193       9.1797517
       5584.5240       9.3167306
       5585.6288       9.2738001
       5586.7335       9.1112709
       5587.8382       9.1453060
       5588.9430       9.1743307
       5590.0477       8.9984170
       5591.1524       9.4106778
       5592.2571       9.5077958
       5593.3619       9.3730479
       5594.4666       9.2128553
       5595.5713       9.3645839
       5596.6761       9.3661380
       5597.7808       9.6316089
       5598.8855       9.5042696
       5599.9903       9.5723536
       5601.0950       9.1897186
       5602.1997       9.3129722
       5603.3045       9.5115232
       5604.4092       9.5022096
       5605.5139       9.1697013
       5606.6187       9.0983814
       5607.7234       9.0971573
       5608.8281       9.2529348
       5609.9329       9.1410991
       5611.0376       9.2058641
       5612.1423       9.1577377
       5613.2471       9.1626798
       5614.3518       9.1874095
       5615.4565       9.1471175
       5616.5613       9.3847201
       5617.6660       9.3137946
       5618.7707       9.4403824
       5619.8755       9.5794119
       5620.9802       9.4432238
       5622.0849       9.8004258
       5623.1896       9.7960567
       5624.2944       9.7660496
       5625.3991       9.8427439
       5626.5038       9.5750765
       5627.6086       9.5809524
       5628.7133       9.8975103
       5629.8180       9.6340976
       5630.9228       9.5702323
       5632.0275       9.5068458
       5633.1322       9.2896103
       5634.2370       9.1184031
       5635.3417       8.9903270
       5636.4464       8.8917227
       5637.5512       9.2603314
       5638.6559       9.4792031
       5639.7606       9.4661492
       5640.8654       9.7487771
       5641.9701       9.6497345
       5643.0748       9.9329405
       5644.1796       9.8780303
       5645.2843       9.9047346
       5646.3890       10.101927
       5647.4938       9.9518302
       5648.5985       9.6907286
       5649.7032       9.8983140
       5650.8079       9.9533232
       5651.9127       9.7982857
       5653.0174       9.9636464
       5654.1221       9.8030588
       5655.2269       9.3550355
       5656.3316       9.3710915
       5657.4363       9.4265835
       5658.5411       9.2706726
       5659.6458       9.4019198
       5660.7505       9.3337669
       5661.8553       9.6453750
       5662.9600       9.5989003
       5664.0647       9.8464757
       5665.1695       9.8047835
       5666.2742       9.8566616
       5667.3789       9.9482648
       5668.4837       10.050502
       5669.5884       10.203080
       5670.6931       10.485636
       5671.7979       10.436406
       5672.9026       10.284485
       5674.0073       10.191883
       5675.1121       10.114800
       5676.2168       10.290488
       5677.3215       10.256519
       5678.4263       10.446678
       5679.5310       10.378870
       5680.6357       10.207668
       5681.7404       10.412124
       5682.8452       10.359791
       5683.9499       10.419923
       5685.0546       10.578539
       5686.1594       10.472762
       5687.2641       10.243650
       5688.3688       10.580899
       5689.4736       10.483723
       5690.5783       10.423960
       5691.6830       10.785435
       5692.7878       10.575886
       5693.8925       10.519656
       5694.9972       10.356126
       5696.1020       10.779664
       5697.2067       10.914643
       5698.3114       10.557087
       5699.4162       10.598076
       5700.5209       10.451728
       5701.6256       10.647617
       5702.7304       10.565056
       5703.8351       10.688695
       5704.9398       10.662376
       5706.0446       10.555777
       5707.1493       10.637670
       5708.2540       10.710190
       5709.3587       10.696462
       5710.4635       10.684318
       5711.5682       10.833017
       5712.6729       10.684649
       5713.7777       10.375565
       5714.8824       10.515778
       5715.9871       10.533021
       5717.0919       10.676897
       5718.1966       10.716184
       5719.3013       10.505586
       5720.4061       10.768835
       5721.5108       10.635711
       5722.6155       10.562291
       5723.7203       10.376086
       5724.8250       10.375349
       5725.9297       10.459541
       5727.0345       10.301758
       5728.1392       10.692914
       5729.2439       10.721702
       5730.3487       10.318421
       5731.4534       10.452176
       5732.5581       10.628782
       5733.6629       10.620858
       5734.7676       10.504888
       5735.8723       10.154690
       5736.9770       10.201026
       5738.0818       10.323648
       5739.1865       10.315427
       5740.2912       10.320759
       5741.3960       10.524807
       5742.5007       10.343188
       5743.6054       10.630036
       5744.7102       10.758308
       5745.8149       10.494050
       5746.9196       10.909013
       5748.0244       10.858127
       5749.1291       10.956318
       5750.2338       10.981233
       5751.3386       11.099544
       5752.4433       11.084422
       5753.5480       11.163115
       5754.6528       11.111332
       5755.7575       11.185293
       5756.8622       11.253685
       5757.9670       10.913615
       5759.0717       10.885283
       5760.1764       10.563071
       5761.2812       10.939560
       5762.3859       10.836688
       5763.4906       10.884009
       5764.5954       11.120179
       5765.7001       10.915948
       5766.8048       10.886999
       5767.9095       11.079351
       5769.0143       10.971565
       5770.1190       11.086026
       5771.2237       11.136054
       5772.3285       11.221518
       5773.4332       11.124027
       5774.5379       11.110662
       5775.6427       11.260867
       5776.7474       11.213896
       5777.8521       11.137061
       5778.9569       11.197252
       5780.0616       11.294863
       5781.1663       11.522237
       5782.2711       11.308559
       5783.3758       11.572202
       5784.4805       11.347552
       5785.5853       11.200525
       5786.6900       11.391952
       5787.7947       11.098104
       5788.8995       11.278981
       5790.0042       11.234160
       5791.1089       11.279358
       5792.2137       11.074644
       5793.3184       10.967703
       5794.4231       10.823287
       5795.5278       11.109063
       5796.6326       10.748734
       5797.7373       10.830607
       5798.8420       10.893667
       5799.9468       11.063755
       5801.0515       10.991483
       5802.1562       11.169411
       5803.2610       11.406491
       5804.3657       11.384686
       5805.4704       11.377793
       5806.5752       10.997196
       5807.6799       10.831324
       5808.7846       11.014932
       5809.8894       10.573279
       5810.9941       11.133529
       5812.0988       11.483176
       5813.2036       11.758714
       5814.3083       12.026864
       5815.4130       12.330224
       5816.5178       10.427241
       5817.6225       8.9624555
       5818.7272       7.1885706
       5819.8320       7.1466909
       5820.9367       6.9549758
       5822.0414       10.007664
       5823.1462       10.914045
       5824.2509       10.802826
       5825.3556       10.736102
       5826.4603       10.799302
       5827.5651       10.845697
       5828.6698       11.076661
       5829.7745       11.322201
       5830.8793       11.335006
       5831.9840       11.585847
       5833.0887       11.759764
       5834.1935       11.677958
       5835.2982       11.369161
       5836.4029       11.656090
       5837.5077       11.251375
       5838.6124       10.909948
       5839.7171       10.900738
       5840.8219       11.171701
       5841.9266       11.045216
       5843.0313       10.632808
       5844.1361       10.297790
       5845.2408       10.299345
       5846.3455       9.6042256
       5847.4503       9.3084754
       5848.5550       9.3436134
       5849.6597       9.2569160
       5850.7645       9.0779103
       5851.8692       9.0544503
       5852.9739       8.9782258
       5854.0786       9.1898011
       5855.1834       9.1526869
       5856.2881       9.4719111
       5857.3928       9.7794470
       5858.4976       9.9442159
       5859.6023       10.404614
       5860.7070       10.615370
       5861.8118       10.966150
       5862.9165       10.894433
       5864.0212       11.043889
       5865.1260       10.969568
       5866.2307       11.152890
       5867.3354       10.808846
       5868.4402       11.059338
       5869.5449       11.013108
       5870.6496       11.087266
       5871.7544       10.921749
       5872.8591       10.963673
       5873.9638       11.135155
       5875.0686       11.170196
       5876.1733       11.351212
       5877.2780       11.110662
       5878.3828       11.255005
       5879.4875       11.090830
       5880.5922       10.842145
       5881.6969       10.816107
       5882.8017       10.785952
       5883.9064       11.012315
       5885.0111       11.272316
       5886.1159       10.960253
       5887.2206       10.962618
       5888.3253       10.968465
       5889.4301       11.086806
       5890.5348       11.234232
       5891.6395       11.202454
       5892.7443       10.980658
       5893.8490       10.947956
       5894.9537       10.911816
       5896.0585       11.093469
       5897.1632       11.217437
       5898.2679       11.205016
       5899.3727       11.078376
       5900.4774       11.292591
       5901.5821       11.094686
       5902.6869       11.224391
       5903.7916       11.092391
       5904.8963       10.899098
       5906.0011       10.984998
       5907.1058       11.043686
       5908.2105       11.022950
       5909.3153       10.968977
       5910.4200       10.675262
       5911.5247       10.473191
       5912.6294       10.182542
       5913.7342       10.589715
       5914.8389       10.848473
       5915.9436       10.945893
       5917.0484       11.024121
       5918.1531       10.859119
       5919.2578       11.057276
       5920.3626       11.141568
       5921.4673       11.156305
       5922.5720       11.056867
       5923.6768       11.092837
       5924.7815       11.169957
       5925.8862       11.128204
       5926.9910       11.196901
       5928.0957       11.245589
       5929.2004       11.370532
       5930.3052       11.388215
       5931.4099       11.180615
       5932.5146       11.322742
       5933.6194       11.036114
       5934.7241       11.057146
       5935.8288       10.918578
       5936.9336       11.024295
       5938.0383       11.054355
       5939.1430       10.975843
       5940.2477       11.039971
       5941.3525       11.035305
       5942.4572       10.952640
       5943.5619       11.297453
       5944.6667       11.160898
       5945.7714       11.106384
       5946.8761       11.030853
       5947.9809       11.087333
       5949.0856       10.794195
       5950.1903       10.938050
       5951.2951       11.526391
       5952.3998       11.640131
       5953.5045       11.534679
       5954.6093       11.561650
       5955.7140       11.581977
       5956.8187       11.344353
       5957.9235       11.255687
       5959.0282       11.193585
       5960.1329       11.239228
       5961.2377       11.155070
       5962.3424       11.244613
       5963.4471       11.115411
       5964.5519       10.870041
       5965.6566       11.193325
       5966.7613       11.108784
       5967.8660       11.028254
       5968.9708       10.988320
       5970.0755       11.024237
       5971.1802       11.174996
       5972.2850       11.039419
       5973.3897       11.272334
       5974.4944       10.962098
       5975.5992       11.008962
       5976.7039       10.871594
       5977.8086       11.069981
       5978.9134       10.725445
       5980.0181       10.677935
       5981.1228       10.851596
       5982.2276       10.790851
       5983.3323       10.707252
       5984.4370       10.844684
       5985.5418       10.988118
       5986.6465       10.853795
       5987.7512       11.012832
       5988.8560       10.921984
       5989.9607       10.997917
       5991.0654       10.941022
       5992.1702       11.040296
       5993.2749       11.224352
       5994.3796       11.392912
       5995.4844       11.415267
       5996.5891       11.354446
       5997.6938       11.636159
       5998.7985       11.507729
       5999.9033       11.461526
       6001.0080       11.361629
       6002.1127       11.384701
       6003.2175       11.483127
       6004.3222       11.451778
       6005.4269       11.175947
       6006.5317       11.375412
       6007.6364       11.122952
       6008.7411       10.947650
       6009.8459       10.893061
       6010.9506       10.646587
       6012.0553       10.955130
       6013.1601       11.241660
       6014.2648       11.260792
       6015.3695       11.198629
       6016.4743       11.158627
       6017.5790       11.308442
       6018.6837       11.437793
       6019.7885       11.336536
       6020.8932       10.944310
       6021.9979       10.943782
       6023.1027       10.860797
       6024.2074       10.834552
       6025.3121       10.951542
       6026.4168       10.920562
       6027.5216       11.166050
       6028.6263       11.070073
       6029.7310       11.091458
       6030.8358       11.172769
       6031.9405       11.012288
       6033.0452       11.236223
       6034.1500       11.323195
       6035.2547       11.193922
       6036.3594       11.386814
       6037.4642       11.346774
       6038.5689       11.293487
       6039.6736       11.401744
       6040.7784       11.424137
       6041.8831       11.179816
       6042.9878       11.018913
       6044.0926       10.844908
       6045.1973       10.968386
       6046.3020       11.143463
       6047.4068       11.097551
       6048.5115       10.962419
       6049.6162       10.775642
       6050.7210       11.104706
       6051.8257       10.863409
       6052.9304       10.924920
       6054.0352       10.859426
       6055.1399       11.253359
       6056.2446       11.232490
       6057.3493       11.301194
       6058.4541       11.317425
       6059.5588       11.042390
       6060.6635       10.988794
       6061.7683       10.940597
       6062.8730       11.125864
       6063.9777       10.830696
       6065.0825       10.692819
       6066.1872       10.787894
       6067.2919       10.810630
       6068.3967       10.960750
       6069.5014       10.928227
       6070.6061       10.690066
       6071.7109       10.773959
       6072.8156       10.852537
       6073.9203       10.981003
       6075.0251       10.904540
       6076.1298       10.875987
       6077.2345       10.810189
       6078.3393       11.014655
       6079.4440       11.111038
       6080.5487       10.860658
       6081.6535       11.169448
       6082.7582       10.949823
       6083.8629       11.002741
       6084.9676       10.721974
       6086.0724       10.670140
       6087.1771       10.865915
       6088.2818       10.735377
       6089.3866       10.688877
       6090.4913       10.836569
       6091.5960       10.870208
       6092.7008       10.790836
       6093.8055       10.859001
       6094.9102       10.805947
       6096.0150       11.024098
       6097.1197       10.974069
       6098.2244       10.956162
       6099.3292       10.881946
       6100.4339       10.711449
       6101.5386       10.730459
       6102.6434       10.627157
       6103.7481       10.611456
       6104.8528       10.458916
       6105.9576       10.449388
       6107.0623       10.469856
       6108.1670       10.734114
       6109.2718       10.696435
       6110.3765       10.640531
       6111.4812       10.427848
       6112.5859       10.179368
       6113.6907       10.036866
       6114.7954       10.338120
       6115.9001       10.658637
       6117.0049       10.731705
       6118.1096       10.530491
       6119.2143       10.612310
       6120.3191       10.791475
       6121.4238       10.783828
       6122.5285       10.649335
       6123.6333       10.585538
       6124.7380       10.571849
       6125.8427       10.322347
       6126.9475       10.345432
       6128.0522       10.054021
       6129.1569       10.058367
       6130.2617       10.010198
       6131.3664       9.8950924
       6132.4711       10.011653
       6133.5759       10.180663
       6134.6806       10.164440
       6135.7853       10.316800
       6136.8901       10.200054
       6137.9948       10.134955
       6139.0995       10.219459
       6140.2043       10.147521
       6141.3090       10.294182
       6142.4137       10.224698
       6143.5184       10.530712
       6144.6232       10.540647
       6145.7279       10.607628
       6146.8326       10.411829
       6147.9374       10.616172
       6149.0421       10.658390
       6150.1468       10.537189
       6151.2516       10.640917
       6152.3563       10.603146
       6153.4610       10.661472
       6154.5658       10.507520
       6155.6705       10.356360
       6156.7752       10.318938
       6157.8800       10.398893
       6158.9847       10.299925
       6160.0894       10.094593
       6161.1942       10.384049
       6162.2989       10.386706
       6163.4036       10.401052
       6164.5084       10.474626
       6165.6131       10.444437
       6166.7178       10.450198
       6167.8226       10.643639
       6168.9273       10.667266
       6170.0320       10.558038
       6171.1367       10.574590
       6172.2415       10.411633
       6173.3462       10.550590
       6174.4509       10.658609
       6175.5557       10.642136
       6176.6604       10.345525
       6177.7651       10.646094
       6178.8699       10.546536
       6179.9746       10.575411
       6181.0793       10.585042
       6182.1841       10.526254
       6183.2888       10.400907
       6184.3935       10.391530
       6185.4983       10.453168
       6186.6030       10.338294
       6187.7077       10.317644
       6188.8125       10.377006
       6189.9172       10.474225
       6191.0219       10.471798
       6192.1267       10.568313
       6193.2314       10.540395
       6194.3361       10.609986
       6195.4409       10.562148
       6196.5456       10.479904
       6197.6503       10.385850
       6198.7551       10.818500
       6199.8598       10.512233
       6200.9645       10.224453
       6202.0692       10.319730
       6203.1740       10.375949
       6204.2787       10.300144
       6205.3834       10.208913
       6206.4882       10.268638
       6207.5929       10.614900
       6208.6976       10.537051
       6209.8024       10.386640
       6210.9071       10.521176
       6212.0118       10.292668
       6213.1166       10.066312
       6214.2213       10.414261
       6215.3260       10.374251
       6216.4308       10.447964
       6217.5355       10.426660
       6218.6402       10.298801
       6219.7450       9.8132186
       6220.8497       9.9299956
       6221.9544       10.201696
       6223.0592       10.112769
       6224.1639       10.359316
       6225.2686       10.264625
       6226.3734       10.452558
       6227.4781       10.457701
       6228.5828       10.266706
       6229.6875       10.242737
       6230.7923       10.316312
       6231.8970       10.287319
       6233.0017       10.288081
       6234.1065       10.373383
       6235.2112       10.383982
       6236.3159       10.553185
       6237.4207       10.710795
       6238.5254       10.523647
       6239.6301       10.623245
       6240.7349       10.601558
       6241.8396       10.615895
       6242.9443       10.632737
       6244.0491       10.705651
       6245.1538       10.715655
       6246.2585       10.669339
       6247.3633       10.600373
       6248.4680       10.463886
       6249.5727       10.373050
       6250.6775       10.391026
       6251.7822       10.238967
       6252.8869       10.131103
       6253.9917       10.241995
       6255.0964       10.269253
       6256.2011       10.435687
       6257.3058       10.428141
       6258.4106       10.530999
       6259.5153       10.716059
       6260.6200       10.783486
       6261.7248       10.630798
       6262.8295       10.793505
       6263.9342       10.955793
       6265.0390       10.878033
       6266.1437       11.151826
       6267.2484       11.013560
       6268.3532       11.106994
       6269.4579       11.182330
       6270.5626       11.161201
       6271.6674       11.221481
       6272.7721       11.196615
       6273.8768       11.210880
       6274.9816       11.201467
       6276.0863       10.939917
       6277.1910       10.749372
       6278.2958       10.631412
       6279.4005       10.693631
       6280.5052       10.792142
       6281.6100       10.915191
       6282.7147       10.901528
       6283.8194       10.706391
       6284.9242       10.806241
       6286.0289       10.715227
       6287.1336       10.669913
       6288.2383       10.629584
       6289.3431       10.740880
       6290.4478       10.658376
       6291.5525       10.580505
       6292.6573       10.816132
       6293.7620       10.881861
       6294.8667       10.981566
       6295.9715       10.870820
       6297.0762       10.984220
       6298.1809       11.111082
       6299.2857       11.226286
       6300.3904       11.253886
       6301.4951       11.093102
       6302.5999       11.036860
       6303.7046       10.946350
       6304.8093       11.205976
       6305.9141       11.114963
       6307.0188       11.214343
       6308.1235       11.137360
       6309.2283       10.964166
       6310.3330       10.808426
       6311.4377       10.844344
       6312.5425       10.774898
       6313.6472       10.765426
       6314.7519       10.887789
       6315.8566       10.764814
       6316.9614       10.851404
       6318.0661       11.027790
       6319.1708       11.079088
       6320.2756       11.023982
       6321.3803       11.208738
       6322.4850       11.084398
       6323.5898       11.135199
       6324.6945       11.212950
       6325.7992       11.026252
       6326.9040       11.000412
       6328.0087       10.743364
       6329.1134       10.585497
       6330.2182       10.503016
       6331.3229       10.464251
       6332.4276       10.271815
       6333.5324       10.601754
       6334.6371       10.768351
       6335.7418       10.849583
       6336.8466       10.749018
       6337.9513       10.737524
       6339.0560       11.032233
       6340.1608       10.938053
       6341.2655       11.109887
       6342.3702       11.150094
       6343.4750       11.048020
       6344.5797       11.263177
       6345.6844       11.216412
       6346.7891       11.130884
       6347.8939       11.016297
       6348.9986       11.062057
       6350.1033       11.094005
       6351.2081       11.129689
       6352.3128       11.540197
       6353.4175       11.457359
       6354.5223       11.335025
       6355.6270       11.219013
       6356.7317       11.033233
       6357.8365       10.471776
       6358.9412       10.362564
       6360.0459       10.093861
       6361.1507       9.3302559
       6362.2554       9.0056420
       6363.3601       8.8569391
       6364.4649       8.5901623
       6365.5696       8.6632446
       6366.6743       8.8063757
       6367.7791       9.0708274
       6368.8838       9.4584668
       6369.9885       9.6919415
       6371.0933       9.9121770
       6372.1980       10.227091
       6373.3027       10.533323
       6374.4074       10.552681
       6375.5122       10.426397
       6376.6169       10.525736
       6377.7216       10.272475
       6378.8264       10.254693
       6379.9311       10.355599
       6381.0358       10.241858
       6382.1406       10.084365
       6383.2453       9.9817386
       6384.3500       10.136804
       6385.4548       9.9210356
       6386.5595       10.112009
       6387.6642       10.073556
       6388.7690       10.181726
       6389.8737       10.220467
       6390.9784       10.271181
       6392.0832       10.091202
       6393.1879       10.399781
       6394.2926       10.473752
       6395.3974       10.244453
       6396.5021       10.244008
       6397.6068       10.249349
       6398.7116       10.833753
       6399.8163       10.814552
       6400.9210       10.851275
       6402.0257       10.634992
       6403.1305       10.621813
       6404.2352       10.579300
       6405.3399       10.577649
       6406.4447       10.692767
       6407.5494       10.995670
       6408.6541       11.079649
       6409.7589       11.148593
       6410.8636       11.152191
       6411.9683       11.277168
       6413.0731       10.852661
       6414.1778       10.698455
       6415.2825       10.525117
       6416.3873       10.795657
       6417.4920       11.188153
       6418.5967       10.935466
       6419.7015       10.989519
       6420.8062       10.817811
       6421.9109       10.732843
       6423.0157       10.871637
       6424.1204       11.028518
       6425.2251       11.212306
       6426.3299       11.310536
       6427.4346       11.049069
       6428.5393       10.950778
       6429.6441       11.066290
       6430.7488       10.761493
       6431.8535       11.248933
       6432.9582       11.393322
       6434.0630       11.137967
       6435.1677       11.376547
       6436.2724       11.406778
       6437.3772       11.339887
       6438.4819       11.261550
       6439.5866       11.184710
       6440.6914       11.331934
       6441.7961       11.328285
       6442.9008       11.499813
       6444.0056       11.632340
       6445.1103       11.344038
       6446.2150       11.473705
       6447.3198       11.495256
       6448.4245       11.252897
       6449.5292       11.106269
       6450.6340       11.417964
       6451.7387       11.692299
       6452.8434       11.628704
       6453.9482       11.622382
       6455.0529       11.760314
       6456.1576       11.454447
       6457.2624       11.357485
       6458.3671       11.441920
       6459.4718       11.413779
       6460.5765       11.491758
       6461.6813       11.539270
       6462.7860       11.429262
       6463.8907       11.491359
       6464.9955       11.490960
       6466.1002       11.268777
       6467.2049       11.279401
       6468.3097       11.323522
       6469.4144       10.873280
       6470.5191       10.495281
       6471.6239       10.680293
       6472.7286       10.705454
       6473.8333       10.772182
       6474.9381       10.777354
       6476.0428       11.254565
       6477.1475       11.469514
       6478.2523       11.444985
       6479.3570       11.363332
       6480.4617       11.538050
       6481.5665       11.672138
       6482.6712       11.801663
       6483.7759       11.872880
       6484.8807       11.860909
       6485.9854       11.863020
       6487.0901       11.650062
       6488.1949       11.533188
       6489.2996       11.370911
       6490.4043       11.555577
       6491.5090       11.539696
       6492.6138       11.320975
       6493.7185       11.452729
       6494.8232       11.617896
       6495.9280       11.572319
       6497.0327       11.925099
       6498.1374       11.706065
       6499.2422       11.769225
       6500.3469       11.834527
       6501.4516       11.662804
       6502.5564       11.581734
       6503.6611       11.552237
       6504.7658       11.665816
       6505.8706       11.577382
       6506.9753       11.646536
       6508.0800       11.599704
       6509.1848       11.564888
       6510.2895       11.703993
       6511.3942       11.603601
       6512.4990       11.688565
       6513.6037       11.834272
       6514.7084       11.901957
       6515.8132       11.902518
       6516.9179       11.990204
       6518.0226       12.306314
       6519.1273       13.004260
       6520.2321       13.691971
       6521.3368       14.543111
       6522.4415       14.790625
       6523.5463       14.924135
       6524.6510       14.963033
       6525.7557       14.841074
       6526.8605       14.649955
       6527.9652       13.873179
       6529.0699       13.191358
       6530.1747       13.049321
       6531.2794       13.443905
       6532.3841       14.748756
       6533.4889       18.148626
       6534.5936       23.232152
       6535.6983       27.948738
       6536.8031       31.709142
       6537.9078       34.969748
       6539.0125       37.150816
       6540.1173       37.783238
       6541.2220       36.621845
       6542.3267       33.671565
       6543.4315       27.778354
       6544.5362       21.533262
       6545.6409       17.471073
       6546.7456       14.329692
       6547.8504       12.803750
       6548.9551       11.836571
       6550.0598       11.704181
       6551.1646       11.814482
       6552.2693       12.240790
       6553.3740       13.097634
       6554.4788       14.530046
       6555.5835       16.793208
       6556.6882       19.039700
       6557.7930       20.756263
       6558.8977       22.054598
       6560.0024       22.640944
       6561.1072       23.029995
       6562.2119       22.373571
       6563.3166       20.941944
       6564.4214       18.541638
       6565.5261       16.105994
       6566.6308       14.130522
       6567.7356       13.011707
       6568.8403       12.267775
       6569.9450       11.890548
       6571.0498       11.486890
       6572.1545       11.837371
       6573.2592       11.297781
       6574.3640       11.443695
       6575.4687       11.854445
       6576.5734       11.751263
       6577.6781       11.936050
       6578.7829       11.975041
       6579.8876       12.133398
       6580.9923       12.042801
       6582.0971       11.903245
       6583.2018       11.821611
       6584.3065       11.834491
       6585.4113       11.891881
       6586.5160       11.942282
       6587.6207       11.919829
       6588.7255       11.873864
       6589.8302       11.887403
       6590.9349       11.913601
       6592.0397       12.066635
       6593.1444       11.897951
       6594.2491       12.102723
       6595.3539       12.113008
       6596.4586       12.123686
       6597.5633       12.222893
       6598.6681       12.041007
       6599.7728       11.992871
       6600.8775       12.008841
       6601.9823       11.845191
       6603.0870       11.985326
       6604.1917       11.946120
       6605.2964       12.122786
       6606.4012       12.100290
       6607.5059       11.886174
       6608.6106       11.778092
       6609.7154       11.727201
       6610.8201       11.704815
       6611.9248       11.880704
       6613.0296       12.016127
       6614.1343       12.073916
       6615.2390       11.849146
       6616.3438       12.056472
       6617.4485       12.023332
       6618.5532       11.897708
       6619.6580       11.935353
       6620.7627       12.164614
       6621.8674       12.120260
       6622.9722       11.779058
       6624.0769       11.773369
       6625.1816       11.935688
       6626.2864       12.031012
       6627.3911       12.007497
       6628.4958       11.872710
       6629.6006       11.893531
       6630.7053       12.119545
       6631.8100       11.995093
       6632.9148       11.968021
       6634.0195       12.188670
       6635.1242       12.218094
       6636.2289       12.018813
       6637.3337       11.777700
       6638.4384       11.809629
       6639.5431       11.929555
       6640.6479       11.693295
       6641.7526       11.557462
       6642.8573       11.678680
       6643.9621       11.568717
       6645.0668       11.498803
       6646.1715       11.542473
       6647.2763       11.579878
       6648.3810       11.843909
       6649.4857       11.821345
       6650.5905       11.566983
       6651.6952       11.464921
       6652.7999       11.565608
       6653.9047       11.649202
       6655.0094       11.706231
       6656.1141       11.511396
       6657.2189       11.482223
       6658.3236       11.361243
       6659.4283       11.260953
       6660.5331       11.153153
       6661.6378       11.235153
       6662.7425       11.180009
       6663.8472       11.296633
       6664.9520       11.186332
       6666.0567       11.145127
       6667.1614       11.383588
       6668.2662       11.564482
       6669.3709       11.275333
       6670.4756       11.362276
       6671.5804       11.471082
       6672.6851       11.356415
       6673.7898       11.266452
       6674.8946       11.426573
       6675.9993       11.389989
       6677.1040       11.231235
       6678.2088       11.025374
       6679.3135       11.276389
       6680.4182       11.374606
       6681.5230       11.603386
       6682.6277       11.702264
       6683.7324       11.711334
       6684.8372       11.651774
       6685.9419       11.914783
       6687.0466       12.074894
       6688.1514       12.635434
       6689.2561       13.489276
       6690.3608       14.251251
       6691.4655       15.073068
       6692.5703       15.780775
       6693.6750       16.460181
       6694.7797       16.556492
       6695.8845       16.497411
       6696.9892       16.328373
       6698.0939       15.785825
       6699.1987       14.686460
       6700.3034       13.714157
       6701.4081       13.059087
       6702.5129       12.770313
       6703.6176       12.945402
       6704.7223       13.229579
       6705.8271       13.452062
       6706.9318       14.087091
       6708.0365       14.665460
       6709.1413       14.741862
       6710.2460       15.364446
       6711.3507       15.015081
       6712.4555       14.692029
       6713.5602       13.793773
       6714.6649       13.563211
       6715.7697       12.314181
       6716.8744       11.913236
       6717.9791       11.261500
       6719.0839       11.376909
       6720.1886       11.257016
       6721.2933       11.425703
       6722.3980       11.302389
       6723.5028       11.260796
       6724.6075       11.426828
       6725.7122       11.084291
       6726.8170       11.473897
       6727.9217       11.650019
       6729.0264       11.746648
       6730.1312       11.730692
       6731.2359       12.022325
       6732.3406       11.991931
       6733.4454       12.087563
       6734.5501       12.116370
       6735.6548       12.093254
       6736.7596       11.998124
       6737.8643       12.092149
       6738.9690       12.006511
       6740.0738       12.043662
       6741.1785       12.736112
       6742.2832       12.857884
       6743.3880       12.131992
       6744.4927       12.040424
       6745.5974       12.177517
       6746.7022       11.944890
       6747.8069       11.467909
       6748.9116       10.926957
       6750.0163       10.749739
       6751.1211       11.404566
       6752.2258       11.627566
       6753.3305       12.015783
       6754.4353       12.330016
       6755.5400       11.687915
       6756.6447       12.108396
       6757.7495       12.117909
       6758.8542       12.016024
       6759.9589       12.051686
       6761.0637       11.995619
       6762.1684       11.955633
       6763.2731       11.844054
       6764.3779       12.018035
       6765.4826       11.639087
       6766.5873       11.675007
       6767.6921       11.921868
       6768.7968       12.068010
       6769.9015       12.340106
       6771.0063       11.979924
       6772.1110       11.920803
       6773.2157       11.869931
       6774.3205       11.951193
       6775.4252       11.873952
       6776.5299       12.085508
       6777.6347       12.080455
       6778.7394       12.472172
       6779.8441       12.960210
       6780.9488       12.960498
       6782.0536       12.769493
       6783.1583       12.463414
       6784.2630       12.136758
       6785.3678       12.322963
       6786.4725       12.486966
       6787.5772       12.484616
       6788.6820       12.371115
       6789.7867       12.710950
       6790.8914       12.581070
       6791.9962       12.405995
       6793.1009       12.475077
       6794.2056       12.856891
       6795.3104       12.703071
       6796.4151       12.382710
       6797.5198       12.749583
       6798.6246       12.449800
       6799.7293       12.469691
       6800.8340       12.465053
       6801.9388       12.664736
       6803.0435       12.739657
       6804.1482       13.243569
       6805.2530       12.699550
       6806.3577       12.688301
       6807.4624       12.655869
       6808.5671       12.335065
       6809.6719       11.765033
       6810.7766       11.692371
       6811.8813       12.431468
       6812.9861       12.229101
       6814.0908       12.358549
       6815.1955       12.240198
       6816.3003       12.284445
       6817.4050       12.370519
       6818.5097       12.273151
       6819.6145       12.442737
       6820.7192       12.427269
       6821.8239       12.357076
       6822.9287       12.430667
       6824.0334       12.433588
       6825.1381       12.104695
       6826.2429       12.258152
       6827.3476       12.197487
       6828.4523       12.187312
       6829.5571       12.544773
       6830.6618       12.082126
       6831.7665       12.081236
       6832.8713       12.066976
       6833.9760       11.996999
       6835.0807       11.581615
       6836.1854       11.400977
       6837.2902       10.885639
       6838.3949       11.400727
       6839.4996       11.724164
       6840.6044       11.702191
       6841.7091       11.995063
       6842.8138       12.308254
       6843.9186       12.438160
       6845.0233       12.527149
       6846.1280       12.544737
       6847.2328       12.820705
       6848.3375       12.852136
       6849.4422       12.751040
       6850.5470       12.797827
       6851.6517       12.881097
       6852.7564       12.927891
       6853.8612       12.853445
       6854.9659       12.588911
       6856.0706       12.652292
       6857.1754       12.624102
       6858.2801       12.545121
       6859.3848       12.696656
       6860.4896       12.960023
       6861.5943       13.186306
       6862.6990       12.927188
       6863.8038       12.646511
       6864.9085       12.635166
       6866.0132       12.509245
       6867.1179       12.343732
       6868.2227       12.704921
       6869.3274       13.219381
       6870.4321       13.042210
       6871.5369       12.937845
       6872.6416       12.852182
       6873.7463       12.885025
       6874.8511       13.048759
       6875.9558       13.093545
       6877.0605       12.862817
       6878.1653       12.554094
       6879.2700       12.693398
       6880.3747       12.677905
       6881.4795       12.523593
       6882.5842       12.811929
       6883.6889       12.650606
       6884.7937       12.825376
       6885.8984       12.989003
       6887.0031       12.880501
       6888.1079       13.035694
       6889.2126       13.198777
       6890.3173       13.017677
       6891.4221       12.936087
       6892.5268       12.866753
       6893.6315       12.883832
       6894.7362       13.085467
       6895.8410       13.125034
       6896.9457       13.048810
       6898.0504       13.073755
       6899.1552       12.985747
       6900.2599       12.899773
       6901.3646       12.633092
       6902.4694       12.585107
       6903.5741       12.627381
       6904.6788       12.836195
       6905.7836       12.837835
       6906.8883       12.948479
       6907.9930       12.932401
       6909.0978       12.766895
       6910.2025       12.927697
       6911.3072       13.095233
       6912.4120       13.040864
       6913.5167       12.872470
       6914.6214       13.022801
       6915.7262       12.957128
       6916.8309       12.922459
       6917.9356       13.023167
       6919.0404       13.089622
       6920.1451       13.070219
       6921.2498       13.044922
       6922.3546       13.192696
       6923.4593       13.326395
       6924.5640       12.950854
       6925.6687       13.086291
       6926.7735       13.035074
       6927.8782       13.188389
       6928.9829       13.179683
       6930.0877       13.103358
       6931.1924       12.959525
       6932.2971       13.301621
       6933.4019       13.200737
       6934.5066       13.419439
       6935.6113       13.259150
       6936.7161       13.196775
       6937.8208       13.394815
       6938.9255       13.213898
       6940.0303       13.079481
       6941.1350       13.169731
       6942.2397       13.163315
       6943.3445       13.254200
       6944.4492       13.162772
       6945.5539       13.349599
       6946.6587       13.361589
       6947.7634       13.552225
       6948.8681       14.016926
       6949.9729       13.897186
       6951.0776       13.856376
       6952.1823       13.782048
       6953.2870       13.700302
       6954.3918       13.349121
       6955.4965       13.376690
       6956.6012       13.210138
       6957.7060       13.094684
       6958.8107       12.988419
       6959.9154       13.079085
       6961.0202       13.103491
       6962.1249       13.086458
       6963.2296       13.259055
       6964.3344       13.232595
       6965.4391       13.518474
       6966.5438       13.467099
       6967.6486       13.452229
       6968.7533       13.380508
       6969.8580       13.293468
       6970.9628       13.407627
       6972.0675       13.411725
       6973.1722       13.653733
       6974.2770       13.808851
       6975.3817       13.832953
       6976.4864       13.817279
       6977.5912       13.359349
       6978.6959       13.328268
       6979.8006       13.364673
       6980.9053       13.186195
       6982.0101       13.100173
       6983.1148       13.070175
       6984.2195       13.195140
       6985.3243       13.355221
       6986.4290       13.189767
       6987.5337       13.264020
       6988.6385       13.161643
       6989.7432       13.365270
       6990.8479       13.479736
       6991.9527       13.427504
       6993.0574       13.238623
       6994.1621       13.233615
       6995.2669       13.295341
       6996.3716       13.581971
       6997.4763       13.249447
       6998.5811       13.203078
       6999.6858       13.265382
       7000.7905       13.624127
       7001.8953       13.986103
       7003.0000       13.781003
       7004.1047       13.390664
       7005.2095       13.490596
       7006.3142       13.517005
       7007.4189       13.480784
       7008.5237       13.543966
       7009.6284       13.509704
       7010.7331       13.514619
       7011.8378       13.674511
       7012.9426       13.359545
       7014.0473       13.118865
       7015.1520       13.701288
       7016.2568       13.547086
       7017.3615       13.895427
       7018.4662       14.028528
       7019.5710       14.141201
       7020.6757       14.106035
       7021.7804       13.750033
       7022.8852       13.524442
       7023.9899       13.327168
       7025.0946       13.968875
       7026.1994       14.065139
       7027.3041       13.605077
       7028.4088       13.748554
       7029.5136       13.973310
       7030.6183       13.995073
       7031.7230       13.937160
       7032.8278       13.953979
       7033.9325       13.750328
       7035.0372       13.503837
       7036.1420       13.326300
       7037.2467       13.308351
       7038.3514       12.902768
       7039.4561       12.892322
       7040.5609       12.659547
       7041.6656       12.439023
       7042.7703       11.779846
       7043.8751       11.166499
       7044.9798       10.207566
       7046.0845       9.2321875
       7047.1893       8.2982743
       7048.2940       7.2496767
       7049.3987       6.5098334
       7050.5035             NaN
       7051.6082             NaN
       7052.7129             NaN
       7053.8177             NaN
       7054.9224             NaN
       7056.0271             NaN
       7057.1319             NaN
       7058.2366             NaN
       7059.3413             NaN
       7060.4461             NaN
       7061.5508             NaN
       7062.6555             NaN
       7063.7603             NaN
       7064.8650             NaN
       7065.9697             NaN
       7067.0744             NaN
       7068.1792             NaN
       7069.2839             NaN
       7070.3886             NaN
       7071.4934             NaN
       7072.5981             NaN
       7073.7028             NaN
       7074.8076             NaN
       7075.9123             NaN
       7077.0170             NaN
       7078.1218             NaN
       7079.2265             NaN
       7080.3312             NaN
       7081.4360             NaN
       7082.5407             NaN
       7083.6454             NaN
       7084.7502             NaN
       7085.8549             NaN
       7086.9596             NaN
       7088.0644             NaN
       7089.1691             NaN
       7090.2738             NaN
       7091.3786             NaN
       7092.4833             NaN
       7093.5880             NaN
       7094.6928             NaN
       7095.7975             NaN
       7096.9022             NaN
       7098.0069             NaN
       7099.1117             NaN
       7100.2164             NaN
       7101.3211             NaN
       7102.4259             NaN
       7103.5306             NaN
       7104.6353             NaN
       7105.7401             NaN
       7106.8448             NaN
       7107.9495             NaN
       7109.0543             NaN
       7110.1590             NaN
       7111.2637             NaN
       7112.3685             NaN
       7113.4732             NaN
       7114.5779             NaN
       7115.6827             NaN
       7116.7874             NaN
       7117.8921             NaN
       7118.9969             NaN
       7120.1016             NaN
       7121.2063             NaN
       7122.3111             NaN
       7123.4158             NaN
       7124.5205             NaN
       7125.6252             NaN
       7126.7300             NaN
       7127.8347             NaN
       7128.9394             NaN
       7130.0442             NaN
       7131.1489             NaN
       7132.2536             NaN
       7133.3584             NaN
       7134.4631             NaN
       7135.5678             NaN
       7136.6726             NaN
       7137.7773             NaN
       7138.8820             NaN
       7139.9868             NaN
       7141.0915             NaN
       7142.1962             NaN
       7143.3010             NaN
       7144.4057             NaN
       7145.5104             NaN
       7146.6152             NaN
       7147.7199             NaN
       7148.8246       12.897339
       7149.9294       13.300078
       7151.0341       13.441815
       7152.1388       13.897351
       7153.2436       13.629356
       7154.3483       13.498492
       7155.4530       13.648035
       7156.5577       13.305260
       7157.6625       13.246778
       7158.7672       12.996212
       7159.8719       12.684541
       7160.9767       12.294551
       7162.0814       12.199014
       7163.1861       12.532205
       7164.2909       12.703794
       7165.3956       12.915258
       7166.5003       13.041185
       7167.6051       12.963204
       7168.7098       12.717054
       7169.8145       12.266501
       7170.9193       12.759812
       7172.0240       13.201034
       7173.1287       13.198462
       7174.2335       12.904425
       7175.3382       12.804506
       7176.4429       12.649591
       7177.5477       12.767316
       7178.6524       12.759901
       7179.7571       12.712818
       7180.8619       12.545320
       7181.9666       12.842617
       7183.0713       13.006277
       7184.1760       13.142243
       7185.2808       13.282651
       7186.3855       13.643519
       7187.4902       13.643180
       7188.5950       13.558478
       7189.6997       12.937018
       7190.8044       12.788097
       7191.9092       12.011665
       7193.0139       11.595952
       7194.1186       11.879312
       7195.2234       12.589720
       7196.3281       12.973937
       7197.4328       12.972724
       7198.5376       13.040511
       7199.6423       12.718429
       7200.7470       12.691168
       7201.8518       12.527660
       7202.9565       12.652268
       7204.0612       12.738595
       7205.1660       12.752777
       7206.2707       12.906922
       7207.3754       13.086472
       7208.4802       13.155861
       7209.5849       13.283481
       7210.6896       13.157012
       7211.7943       13.130438
       7212.8991       13.121279
       7214.0038       13.268489
       7215.1085       13.233431
       7216.2133       13.257668
       7217.3180       12.939669
       7218.4227       12.911644
       7219.5275       12.872287
       7220.6322       12.932087
       7221.7369       12.775112
       7222.8417       12.892581
       7223.9464       13.182279
       7225.0511       13.128878
       7226.1559       13.446489
       7227.2606       13.580758
       7228.3653       13.688466
       7229.4701       13.503085
       7230.5748       13.167306
       7231.6795       13.262445
       7232.7843       12.918114
       7233.8890       12.791982
       7234.9937       12.391298
       7236.0985       12.823135
       7237.2032       13.132131
       7238.3079       13.282183
       7239.4127       13.343992
       7240.5174       13.332507
       7241.6221       13.301708
       7242.7268       12.996142
       7243.8316       13.025563
       7244.9363       13.107470
       7246.0410       13.266290
       7247.1458       13.064275
       7248.2505       13.120140
       7249.3552       13.265017
       7250.4600       13.660816
       7251.5647       13.829315
       7252.6694       13.604971
       7253.7742       13.995004
       7254.8789       13.792308
       7255.9836       13.742925
       7257.0884       13.730310
       7258.1931       13.006443
       7259.2978       12.486141
       7260.4026       12.814721
       7261.5073       12.908489
       7262.6120       13.146064
       7263.7168       13.114953
       7264.8215       12.989172
       7265.9262       12.804937
       7267.0310       13.077915
       7268.1357       13.013972
       7269.2404       12.986792
       7270.3451       13.068199
       7271.4499       12.965733
       7272.5546       13.267190
       7273.6593       13.351849
       7274.7641       13.015741
       7275.8688       13.078182
       7276.9735       13.069427
       7278.0783       12.988327
       7279.1830       13.272283
       7280.2877       13.603653
       7281.3925       13.855159
       7282.4972       14.341933
       7283.6019       14.139839
       7284.7067       13.592345
       7285.8114       13.584464
       7286.9161       13.215588
       7288.0209       13.510981
       7289.1256       12.860038
       7290.2303       13.019490
       7291.3351       13.423922
       7292.4398       13.408718
       7293.5445       13.129779
       7294.6493       13.215845
       7295.7540       13.081625
       7296.8587       13.680295
       7297.9635       13.722059
       7299.0682       13.777374
       7300.1729       13.680010
       7301.2776       13.315461
       7302.3824       13.611403
       7303.4871       13.508229
       7304.5918       13.374380
       7305.6966       13.621938
       7306.8013       13.804102
       7307.9060       13.601655
       7309.0108       13.895439
       7310.1155       13.993194
       7311.2202       13.971651
       7312.3250       13.530247
       7313.4297       12.934211
       7314.5344       13.263283
       7315.6392       13.917066
       7316.7439       14.038633
       7317.8486       14.157299
       7318.9534       13.976634
       7320.0581       13.515099
       7321.1628       13.368984
       7322.2676       13.402526
       7323.3723       13.029381
       7324.4770       12.864160
       7325.5818       13.482165
       7326.6865       13.301790
       7327.7912       13.299261
       7328.8959       13.589447
       7330.0007       13.366852
       7331.1054       13.488099
       7332.2101       13.470323
       7333.3149       13.447005
       7334.4196       13.327551
       7335.5243       13.309763
       7336.6291       13.897304
       7337.7338       13.627799
       7338.8385       13.876719
       7339.9433       14.295066
       7341.0480       13.678877
       7342.1527       13.415828
       7343.2575       12.927572
       7344.3622       12.932868
       7345.4669       12.488769
       7346.5717       13.256740
       7347.6764       13.672824
       7348.7811       13.720350
       7349.8859       13.691418
       7350.9906       13.582687
       7352.0953       13.369297
       7353.2001       13.635763
       7354.3048       14.141685
       7355.4095       13.949812
       7356.5142       13.990058
       7357.6190       14.075625
       7358.7237       13.758496
       7359.8284       13.680547
       7360.9332       13.816278
       7362.0379       13.804084
       7363.1426       14.333276
       7364.2474       14.512415
       7365.3521       14.531628
       7366.4568       14.293590
       7367.5616       13.770689
       7368.6663       13.620470
       7369.7710       13.579281
       7370.8758       13.413445
       7371.9805       13.577647
       7373.0852       13.658775
       7374.1900       13.669709
       7375.2947       13.888315
       7376.3994       13.460030
       7377.5042       13.174921
       7378.6089       13.472089
       7379.7136       13.736555
       7380.8184       13.566852
       7381.9231       13.753225
       7383.0278       13.756936
       7384.1326       14.168599
       7385.2373       12.866947
       7386.3420       12.521254
       7387.4467       13.538104
       7388.5515       13.954311
       7389.6562       13.514267
       7390.7609       13.404254
       7391.8657       12.745662
       7392.9704       12.603716
       7394.0751       13.145114
       7395.1799       13.501350
       7396.2846       13.665916
       7397.3893       13.637088
       7398.4941       13.409549
       7399.5988       13.795937
       7400.7035       13.851531
       7401.8083       13.558340
       7402.9130       13.390996
       7404.0177       13.375389
       7405.1225       13.172009
       7406.2272       12.910487
       7407.3319       13.054187
       7408.4367       13.409645
       7409.5414       13.697384
       7410.6461       14.117961
       7411.7509       13.946085
       7412.8556       14.290525
       7413.9603       14.803748
       7415.0650       14.609015
       7416.1698       14.274263
       7417.2745       13.475421
       7418.3792       13.407834
       7419.4840       13.355758
       7420.5887       13.198282
       7421.6934       13.254934
       7422.7982       13.537854
       7423.9029       13.697568
       7425.0076       13.641637
       7426.1124       13.782748
       7427.2171       13.831190
       7428.3218       13.747941
       7429.4266       13.776014
       7430.5313       13.664968
       7431.6360       14.021749
       7432.7408       14.017240
       7433.8455       14.065751
       7434.9502       14.116526
       7436.0550       14.073092
       7437.1597       14.114018
       7438.2644       13.819546
       7439.3692       13.408860
       7440.4739       13.801797
       7441.5786       14.677731
       7442.6834       14.428066
       7443.7881       14.485078
       7444.8928       13.884401
       7445.9975       13.653137
       7447.1023       14.002804
       7448.2070       14.166926
       7449.3117       13.294081
       7450.4165       13.632313
       7451.5212       13.573012
       7452.6259       13.855491
       7453.7307       13.972379
       7454.8354       13.771827
       7455.9401       13.963229
       7457.0449       13.838160
       7458.1496       14.019871
       7459.2543       13.921924
       7460.3591       13.870916
       7461.4638       13.676855
       7462.5685       13.988517
       7463.6733       13.984545
       7464.7780       13.877641
       7465.8827       14.018761
       7466.9875       14.237024
       7468.0922       14.439700
       7469.1969       14.326825
       7470.3017       14.116778
       7471.4064       13.757302
       7472.5111       14.071084
       7473.6158       14.017157
       7474.7206       13.969671
       7475.8253       14.176836
       7476.9300       14.410337
       7478.0348       14.214151
       7479.1395       14.122615
       7480.2442       13.988304
       7481.3490       13.741490
       7482.4537       13.687427
       7483.5584       14.108274
       7484.6632       14.108178
       7485.7679       14.504629
       7486.8726       14.259694
       7487.9774       14.311465
       7489.0821       14.195748
       7490.1868       14.009196
       7491.2916       14.109362
       7492.3963       13.904543
       7493.5010       14.120305
       7494.6058       13.882219
       7495.7105       14.137767
       7496.8152       14.102124
       7497.9200       14.183151
       7499.0247       14.167829
       7500.1294       14.377405
       7501.2341       14.212384
       7502.3389       14.081132
       7503.4436       13.864586
       7504.5483       14.078314
       7505.6531       14.361161
       7506.7578       14.267001
       7507.8625       14.169634
       7508.9673       14.194605
       7510.0720       14.175556
       7511.1767       13.958109
       7512.2815       14.223450
       7513.3862       14.122128
       7514.4909       14.022326
       7515.5957       14.484480
       7516.7004       14.253893
       7517.8051       14.273708
       7518.9099       14.247178
       7520.0146       14.102186
       7521.1193       14.014137
       7522.2241       14.355065
       7523.3288       14.473578
       7524.4335       14.315868
       7525.5383       13.992730
       7526.6430       13.998568
       7527.7477       14.007608
       7528.8525       13.971690
       7529.9572       14.014406
       7531.0619       13.947508
       7532.1666       14.050483
       7533.2714       14.073158
       7534.3761       14.056605
       7535.4808       13.968056
       7536.5856       13.949978
       7537.6903       13.812846
       7538.7950       13.877409
       7539.8998       13.631118
       7541.0045       13.808472
       7542.1092       13.993835
       7543.2140       13.994124
       7544.3187       13.702374
       7545.4234       13.793658
       7546.5282       13.643731
       7547.6329       13.688115
       7548.7376       13.481673
       7549.8424       13.682225
       7550.9471       13.669985
       7552.0518       13.712402
       7553.1566       13.604147
       7554.2613       13.740966
       7555.3660       13.827645
       7556.4708       14.004967
       7557.5755       13.718065
       7558.6802       13.614026
       7559.7849       13.722626
       7560.8897       13.546411
       7561.9944       13.251726
       7563.0991       13.350149
       7564.2039       13.172393
       7565.3086       13.106082
       7566.4133       13.152118
       7567.5181       13.172299
       7568.6228       12.983590
       7569.7275       12.868428
       7570.8323       12.738363
       7571.9370       12.608088
       7573.0417       12.506531
       7574.1465       12.308799
       7575.2512       12.675983
       7576.3559       12.720690
       7577.4607       12.674973
       7578.5654       12.812201
       7579.6701       12.741203
       7580.7749       12.890131
       7581.8796       13.005208
       7582.9843       12.751570
       7584.0891       12.932676
       7585.1938       12.969237
       7586.2985       12.777386
       7587.4033       12.914739
       7588.5080       12.589581
       7589.6127       12.962816
       7590.7174       13.283165
       7591.8222       13.467767
       7592.9269       13.621828
       7594.0316       13.698755
       7595.1364       13.441103
       7596.2411       13.116943
       7597.3458       12.862929
       7598.4506       12.691843
       7599.5553       12.671576
       7600.6600       12.697194
       7601.7648       12.845170
       7602.8695       12.774951
       7603.9742       12.687654
       7605.0790       12.802914
       7606.1837       12.880294
       7607.2884       12.856541
       7608.3932       12.935484
       7609.4979       13.193213
       7610.6026       13.366830
       7611.7074       13.264216
       7612.8121       13.454655
       7613.9168       13.563342
       7615.0216       13.417675
       7616.1263       13.508566
       7617.2310       13.400962
       7618.3357       13.370130
       7619.4405       13.480769
       7620.5452       13.241604
       7621.6499       13.306487
       7622.7547       13.395929
       7623.8594       13.245744
       7624.9641       13.427852
       7626.0689       13.281387
       7627.1736       13.316516
       7628.2783       13.195618
       7629.3831       13.147734
       7630.4878       12.563453
       7631.5925       12.372449
       7632.6973       11.926209
       7633.8020       11.700765
       7634.9067       11.524056
       7636.0115       11.632258
       7637.1162       11.528251
       7638.2209       12.051757
       7639.3257       12.071539
       7640.4304       12.229968
       7641.5351       12.216297
       7642.6399       12.414531
       7643.7446       12.289616
       7644.8493       12.181844
       7645.9540       12.274843
       7647.0588       12.291714
       7648.1635       12.479159
       7649.2682       12.452934
       7650.3730       12.565233
       7651.4777       12.820048
       7652.5824       12.834145
       7653.6872       13.045653
       7654.7919       12.943332
       7655.8966       12.821442
       7657.0014       13.128689
       7658.1061       13.153497
       7659.2108       12.869691
       7660.3156       12.881229
       7661.4203       12.770373
       7662.5250       12.780819
       7663.6298       13.120772
       7664.7345       13.059166
       7665.8392       12.992672
       7666.9440       13.066527
       7668.0487       13.196674
       7669.1534       13.040604
       7670.2582       13.219405
       7671.3629       13.095294
       7672.4676       12.890150
       7673.5724       12.884266
       7674.6771       12.943862
       7675.7818       12.931155
       7676.8865       12.708991
       7677.9913       12.833463
       7679.0960       13.046680
       7680.2007       13.154132
       7681.3055       12.881148
       7682.4102       13.033579
       7683.5149       13.227503
       7684.6197       13.250032
       7685.7244       12.814395
       7686.8291       13.266609
       7687.9339       13.426515
       7689.0386       13.103475
       7690.1433       12.383447
       7691.2481       12.185770
       7692.3528       11.394821
       7693.4575       11.880030
       7694.5623       12.914670
       7695.6670       13.641733
       7696.7717       13.365546
       7697.8765       12.767536
       7698.9812       12.832888
       7700.0859       12.364417
       7701.1907       12.654782
       7702.2954       12.297148
       7703.4001       12.661001
       7704.5048       12.739204
       7705.6096       13.118791
       7706.7143       13.406955
       7707.8190       13.263211
       7708.9238       13.146669
       7710.0285       13.188966
       7711.1332       13.038089
       7712.2380       13.120941
       7713.3427       13.102819
       7714.4474       13.395797
       7715.5522       13.329383
       7716.6569       13.442159
       7717.7616       13.190977
       7718.8664       13.138057
       7719.9711       12.925509
       7721.0758       13.292185
       7722.1806       13.276408
       7723.2853       13.229509
       7724.3900       13.132820
       7725.4948       12.990160
       7726.5995       13.274143
       7727.7042       12.933108
       7728.8090       12.970094
       7729.9137       12.793799
       7731.0184       13.102157
       7732.1232       12.946109
       7733.2279       12.999238
       7734.3326       13.171829
       7735.4373       13.565858
       7736.5421       12.664004
       7737.6468       13.867014
       7738.7515       15.104667
       7739.8563       14.751647
       7740.9610       15.170565
       7742.0657       14.477995
       7743.1705       13.091200
       7744.2752       12.755509
       7745.3799       12.925786
       7746.4847       13.678351
       7747.5894       14.026627
       7748.6941       13.722130
       7749.7989       12.694295
       7750.9036       12.589028
       7752.0083       12.682832
       7753.1131       13.042720
       7754.2178       13.206469
       7755.3225       13.093514
       7756.4273       13.254288
       7757.5320       13.486936
       7758.6367       13.664580
       7759.7415       13.163638
       7760.8462       13.493517
       7761.9509       13.179599
       7763.0556       13.029502
       7764.1604       13.047376
       7765.2651       13.127337
       7766.3698       13.398679
       7767.4746       13.425478
       7768.5793       13.325853
       7769.6840       13.594516
       7770.7888       13.451791
       7771.8935       14.136884
       7772.9982       14.083037
       7774.1030       13.886715
       7775.2077       13.600662
       7776.3124       13.633057
       7777.4172       14.007633
       7778.5219       13.633379
       7779.6266       13.376902
       7780.7314       13.327855
       7781.8361       13.862091
       7782.9408       13.734630
       7784.0456       13.670488
       7785.1503       13.994256
       7786.2550       14.268288
       7787.3598       14.162756
       7788.4645       14.441241
       7789.5692       15.200422
       7790.6739       14.925387
       7791.7787       14.037830
       7792.8834       13.642006
       7793.9881       12.932954
       7795.0929       12.851484
       7796.1976       12.682608
       7797.3023       13.031499
       7798.4071       13.347209
       7799.5118       13.591483
       7800.6165       13.549697
       7801.7213       13.587208
       7802.8260       13.750122
       7803.9307       14.379900
       7805.0355       14.172952
       7806.1402       14.219916
       7807.2449       13.610091
       7808.3497       13.737232
       7809.4544       13.510561
       7810.5591       13.229430
       7811.6639       13.564244
       7812.7686       13.681627
       7813.8733       13.372822
       7814.9781       13.970748
       7816.0828       14.213933
       7817.1875       14.891649
       7818.2923       15.062621
       7819.3970       13.711788
       7820.5017       13.873724
       7821.6064       13.543235
       7822.7112       12.699310
       7823.8159       12.642833
       7824.9206       12.779565
       7826.0254       12.863496
       7827.1301       13.510097
       7828.2348       13.901775
       7829.3396       13.663386
       7830.4443       13.576185
       7831.5490       13.650260
       7832.6538       13.782091
       7833.7585       13.832593
       7834.8632       13.776282
       7835.9680       13.893371
       7837.0727       14.386368
       7838.1774       14.503104
       7839.2822       14.638805
       7840.3869       14.400473
       7841.4916       14.448924
       7842.5964       14.984090
       7843.7011       14.679267
       7844.8058       15.082674
       7845.9106       15.134997
       7847.0153       14.417007
       7848.1200       14.414068
       7849.2247       14.201981
       7850.3295       15.177247
       7851.4342       14.459691
       7852.5389       14.489400
       7853.6437       13.550696
       7854.7484       13.165898
       7855.8531       12.583496
       7856.9579       12.985899
       7858.0626       13.128432
       7859.1673       13.535410
       7860.2721       13.787008
       7861.3768       13.560310
       7862.4815       13.430864
       7863.5863       13.536655
       7864.6910       13.669688
       7865.7957       13.792766
       7866.9005       13.732588
       7868.0052       13.734475
       7869.1099       13.789377
       7870.2147       13.549216
       7871.3194       13.616792
       7872.4241       13.695158
       7873.5289       13.663968
       7874.6336       13.977601
       7875.7383       13.963452
       7876.8431       13.944149
       7877.9478       13.876881
       7879.0525       13.647044
       7880.1572       13.505938
       7881.2620       13.816887
       7882.3667       14.075828
       7883.4714       14.446717
       7884.5762       14.590761
       7885.6809       14.837889
       7886.7856       14.539868
       7887.8904       14.013026
       7888.9951       14.032485
       7890.0998       13.707111
       7891.2046       12.978792
       7892.3093       12.280021
       7893.4140       12.415328
       7894.5188       12.809757
       7895.6235       12.926573
       7896.7282       13.203915
       7897.8330       13.170500
       7898.9377       13.419653
       7900.0424       13.478341
       7901.1472       13.228086
       7902.2519       13.321067
       7903.3566       13.409087
       7904.4614       13.427396
       7905.5661       13.267998
       7906.6708       13.371834
       7907.7755       13.450617
       7908.8803       13.310432
       7909.9850       13.444264
       7911.0897       13.369419
       7912.1945       13.244658
       7913.2992       13.345208
       7914.4039       13.229096
       7915.5087       13.291283
       7916.6134       13.546522
       7917.7181       13.387331
       7918.8229       13.595885
       7919.9276       13.541708
       7921.0323       13.115235
       7922.1371       13.364270
       7923.2418       13.348631
       7924.3465       13.169249
       7925.4513       13.211819
       7926.5560       13.828817
       7927.6607       13.671646
       7928.7655       13.851546
       7929.8702       13.489101
       7930.9749       13.708741
       7932.0797       13.436094
       7933.1844       13.361970
       7934.2891       13.389434
       7935.3938       13.530616
       7936.4986       13.770986
       7937.6033       13.864947
       7938.7080       13.565241
       7939.8128       13.691679
       7940.9175       13.795701
       7942.0222       13.734608
       7943.1270       13.757998
       7944.2317       13.799997
       7945.3364       13.931967
       7946.4412       13.769056
       7947.5459       14.061124
       7948.6506       14.008356
       7949.7554       14.062616
       7950.8601       13.876178
       7951.9648       13.936866
       7953.0696       14.057099
       7954.1743       13.883170
       7955.2790       13.851604
       7956.3838       14.041937
       7957.4885       14.039211
       7958.5932       13.907783
       7959.6980       13.975910
       7960.8027       13.887962
       7961.9074       13.810888
       7963.0122       14.051698
       7964.1169       14.389751
       7965.2216       14.060543
       7966.3263       14.137234
       7967.4311       13.885763
       7968.5358       13.741037
       7969.6405       13.874014
       7970.7453       13.964699
       7971.8500       14.088229
       7972.9547       14.160500
       7974.0595       13.977469
       7975.1642       13.966248
       7976.2689       13.719555
       7977.3737       13.675489
       7978.4784       13.927206
       7979.5831       14.176850
       7980.6879       14.091487
       7981.7926       13.982973
       7982.8973       14.212546
       7984.0021       14.239487
       7985.1068       14.237381
       7986.2115       14.568637
       7987.3163       14.575272
       7988.4210       14.547807
       7989.5257       14.437271
       7990.6305       14.297707
       7991.7352       14.353720
       7992.8399       14.773972
       7993.9446       14.801248
       7995.0494       14.654522
       7996.1541       14.694290
       7997.2588       14.557317
       7998.3636       14.614146
       7999.4683       14.445481
       8000.5730       14.163506
       8001.6778       14.139764
       8002.7825       14.134206
       8003.8872       13.742341
       8004.9920       13.991777
       8006.0967       14.072292
       8007.2014       13.931326
       8008.3062       14.166543
       8009.4109       14.201179
       8010.5156       14.157022
       8011.6204       14.436974
       8012.7251       14.461602
       8013.8298       14.145850
       8014.9346       14.552072
       8016.0393       14.541865
       8017.1440       14.357958
       8018.2488       14.674673
       8019.3535       14.724642
       8020.4582       14.794501
       8021.5630       14.632131
       8022.6677       14.403612
       8023.7724       14.577217
       8024.8771       14.427220
       8025.9819       14.283545
       8027.0866       14.265678
       8028.1913       14.081561
       8029.2961       14.336991
       8030.4008       14.574512
       8031.5055       14.506424
       8032.6103       14.342855
       8033.7150       14.538181
       8034.8197       14.763496
       8035.9245       14.850948
       8037.0292       14.692931
       8038.1339       14.347317
       8039.2387       14.897994
       8040.3434       14.922143
       8041.4481       14.555604
       8042.5529       14.462872
       8043.6576       14.574769
       8044.7623       14.683711
       8045.8671       14.621377
       8046.9718       14.447545
       8048.0765       14.481960
       8049.1813       14.505989
       8050.2860       14.368147
       8051.3907       14.178131
       8052.4954       14.257512
       8053.6002       14.763066
       8054.7049       14.424694
       8055.8096       14.618427
       8056.9144       14.823298
       8058.0191       14.456891
       8059.1238       14.684347
       8060.2286       14.438971
       8061.3333       14.291137
       8062.4380       14.522722
       8063.5428       14.377523
       8064.6475       14.377268
       8065.7522       14.367918
       8066.8570       14.281857
       8067.9617       14.428098
       8069.0664       14.501058
       8070.1712       14.317786
       8071.2759       14.232065
       8072.3806       14.280552
       8073.4854       14.338530
       8074.5901       14.425652
       8075.6948       14.151604
       8076.7996       14.357608
       8077.9043       14.407577
       8079.0090       14.184612
       8080.1137       14.491538
       8081.2185       14.285995
       8082.3232       14.436068
       8083.4279       14.674022
       8084.5327       14.621943
       8085.6374       14.793857
       8086.7421       14.418696
       8087.8469       14.384761
       8088.9516       14.422532
       8090.0563       14.622333
       8091.1611       14.467786
       8092.2658       14.507113
       8093.3705       14.476472
       8094.4753       14.672048
       8095.5800       14.723269
       8096.6847       14.521417
       8097.7895       14.795300
       8098.8942       14.845385
       8099.9989       14.949765
       8101.1037       15.110411
       8102.2084       15.347561
       8103.3131       15.239776
       8104.4179       14.811451
       8105.5226       14.919306
       8106.6273       14.879929
       8107.7321       14.781454
       8108.8368       14.859361
       8109.9415       14.766450
       8111.0462       15.152919
       8112.1510       15.062910
       8113.2557       15.186643
       8114.3604       15.169248
       8115.4652       14.735678
       8116.5699       14.939653
       8117.6746       15.039360
       8118.7794       14.949283
       8119.8841       15.576604
       8120.9888       15.423544
       8122.0936       15.476185
       8123.1983       15.873186
       8124.3030       15.819532
       8125.4078       15.748271
       8126.5125       15.084947
       8127.6172       15.161365
       8128.7220       15.338884
       8129.8267       15.462908
       8130.9314       15.323040
       8132.0362       15.673540
       8133.1409       15.786879
       8134.2456       15.562257
       8135.3504       14.330712
       8136.4551       14.878228
       8137.5598       16.298045
       8138.6645       16.425778
       8139.7693       15.536389
       8140.8740       15.797551
       8141.9787       15.061957
       8143.0835       14.739651
       8144.1882       13.737894
       8145.2929       14.201752
       8146.3977       14.865866
       8147.5024       14.750706
       8148.6071       15.128835
       8149.7119       15.146793
       8150.8166       15.529296
       8151.9213       15.639711
       8153.0261       15.444512
       8154.1308       15.532395
       8155.2355       15.437905
       8156.3403       14.333600
       8157.4450       14.707160
       8158.5497       15.124893
       8159.6545       15.148872
       8160.7592       15.246555
       8161.8639       15.054728
       8162.9687       14.919055
       8164.0734       14.922328
       8165.1781       14.711475
       8166.2828       15.327396
       8167.3876       15.493087
       8168.4923       15.211122
       8169.5970       15.212065
       8170.7018       15.096694
       8171.8065       15.053839
       8172.9112       15.173073
       8174.0160       14.416116
       8175.1207       14.855178
       8176.2254       14.679737
       8177.3302       14.847807
       8178.4349       14.704893
       8179.5396       14.804311
       8180.6444       15.202725
       8181.7491       14.812854
       8182.8538       15.915565
       8183.9586       18.009797
       8185.0633       16.704488
       8186.1680       15.917262
       8187.2728       16.136035
       8188.3775       14.798563
       8189.4822       13.240878
       8190.5870       13.579119
       8191.6917       14.823122
       8192.7964       15.128236
       8193.9012       15.615423
       8195.0059       14.891309
       8196.1106       14.949955
       8197.2153       15.318986
       8198.3201       14.268610
       8199.4248       14.907020
       8200.5295       15.423480
       8201.6343       15.873771
       8202.7390       15.533436
       8203.8437       16.094352
       8204.9485       15.782368
       8206.0532       15.253883
       8207.1579       15.728458
       8208.2627       15.468107
       8209.3674       15.399278
       8210.4721       15.371702
       8211.5769       15.331456
       8212.6816       15.235985
       8213.7863       15.519240
       8214.8911       15.252345
       8215.9958       15.667719
       8217.1005       15.494604
       8218.2053       15.891943
       8219.3100       16.254290
       8220.4147       16.181283
       8221.5195       16.279737
       8222.6242       15.467852
       8223.7289       15.725506
       8224.8336       15.958760
       8225.9384       15.304162
       8227.0431       14.989105
       8228.1478       14.964218
       8229.2526       15.268904
       8230.3573       15.674906
       8231.4620       15.260184
       8232.5668       15.518539
       8233.6715       15.587369
       8234.7762       15.466288
       8235.8810       16.080878
       8236.9857       16.903709
       8238.0904       19.228623
       8239.1952       16.628886
       8240.2999       16.818586
       8241.4046       15.260774
       8242.5094       14.632074
       8243.6141       15.410668
       8244.7188       14.338840
       8245.8236       14.942733
       8246.9283       15.270098
       8248.0330       15.541534
       8249.1378       15.637151
       8250.2425       15.503344
       8251.3472       15.781025
       8252.4520       15.911950
       8253.5567       16.619470
       8254.6614       16.493995
       8255.7661       16.216497
       8256.8709       15.966415
       8257.9756       15.643958
       8259.0803       15.214124
       8260.1851       15.391523
       8261.2898       15.447656
       8262.3945       15.446017
       8263.4993       15.538227
       8264.6040       15.489029
       8265.7087       15.221832
       8266.8135       16.143749
       8267.9182       16.250550
       8269.0229       17.752300
       8270.1277       17.768863
       8271.2324       15.143564
       8272.3371       14.685460
       8273.4419       14.539700
       8274.5466       14.058720
       8275.6513       14.473334
       8276.7561       14.551976
       8277.8608       14.905863
       8278.9655       14.944291
       8280.0703       15.391181
       8281.1750       15.212890
       8282.2797       15.001063
       8283.3844       15.123165
       8284.4892       14.739066
       8285.5939       15.151070
       8286.6986       15.113470
       8287.8034       15.031680
       8288.9081       15.823143
       8290.0128       16.090671
       8291.1176       16.082644
       8292.2223       15.858672
       8293.3270       15.825114
       8294.4318       15.487916
       8295.5365       15.523889
       8296.6412       15.518130
       8297.7460       14.692255
       8298.8507       15.272322
       8299.9554       15.484815
       8301.0602       14.994077
       8302.1649       15.685036
       8303.2696       14.987837
       8304.3744       16.541298
       8305.4791       16.358691
       8306.5838       14.366135
       8307.6886       14.251607
       8308.7933       13.737426
       8309.8980       15.390553
       8311.0027       13.379637
       8312.1075       13.526548
       8313.2122       13.939096
       8314.3169       14.139158
       8315.4217       14.510355
       8316.5264       14.562601
       8317.6311       14.673222
       8318.7359       14.649280
       8319.8406       14.776698
       8320.9453       14.105916
       8322.0501       14.472560
       8323.1548       14.442705
       8324.2595       14.803596
       8325.3643       15.021600
       8326.4690       15.057605
       8327.5737       14.789645
       8328.6785       14.755486
       8329.7832       14.835586
       8330.8879       15.205113
       8331.9927       15.384058
       8333.0974       14.603954
       8334.2021       14.266585
       8335.3069       13.823359
       8336.4116       13.142243
       8337.5163       12.741489
       8338.6211       12.891112
       8339.7258       13.281046
       8340.8305       14.284602
       8341.9352       15.157948
       8343.0400       15.704100
       8344.1447       16.316746
       8345.2494       16.061456
       8346.3542       14.556788
       8347.4589       14.792932
       8348.5636       14.328448
       8349.6684       13.741434
       8350.7731       13.123594
       8351.8778       14.091475
       8352.9826       14.431694
       8354.0873       14.545160
       8355.1920       14.752133
       8356.2968       14.821363
       8357.4015       14.476164
       8358.5062       14.170311
       8359.6110       14.018295
       8360.7157       14.049176
       8361.8204       13.895150
       8362.9252       13.994244
       8364.0299       14.295714
       8365.1346       14.489343
       8366.2394       14.654007
       8367.3441       14.617956
       8368.4488       14.805328
       8369.5535       14.634115
       8370.6583       14.741286
       8371.7630       14.887472
       8372.8677       15.012799
       8373.9725       15.475820
       8375.0772       15.549644
       8376.1819       15.853003
       8377.2867       15.987480
       8378.3914       16.428064
       8379.4961       16.450091
       8380.6009       16.264121
       8381.7056       16.119005
       8382.8103       15.271835
       8383.9151       16.341039
       8385.0198       15.910522
       8386.1245       15.719842
       8387.2293       16.069264
       8388.3340       16.078581
       8389.4387       16.184242
       8390.5435       16.008050
       8391.6482       15.626142
       8392.7529       15.477438
       8393.8577       15.429558
       8394.9624       15.332180
       8396.0671       15.424869
       8397.1719       15.413583
       8398.2766       15.531816
       8399.3813       15.481888
       8400.4860       15.335632
       8401.5908       15.664086
       8402.6955       15.042315
       8403.8002       15.327618
       8404.9050       15.227819
       8406.0097       15.203519
       8407.1144       15.484645
       8408.2192       15.152687
       8409.3239       14.661520
       8410.4286       14.536333
       8411.5334       14.251730
       8412.6381       13.871495
       8413.7428       14.076001
       8414.8476       14.494338
       8415.9523       14.806002
       8417.0570       15.226191
       8418.1618       15.008089
       8419.2665       15.140878
       8420.3712       15.159859
       8421.4760       15.043885
       8422.5807       15.484365
       8423.6854       15.319317
       8424.7902       15.548472
       8425.8949       15.791507
       8426.9996       16.249649
       8428.1043       16.128935
       8429.2091       15.954774
       8430.3138       16.052047
       8431.4185       15.770314
       8432.5233       15.910588
       8433.6280       15.758113
       8434.7327       15.784310
       8435.8375       15.431762
       8436.9422       15.474612
       8438.0469       15.488749
       8439.1517       15.290135
       8440.2564       14.975516
       8441.3611       14.328900
       8442.4659       14.723052
       8443.5706       14.154853
       8444.6753       14.647578
       8445.7801       15.277669
       8446.8848       15.242288
       8447.9895       15.750937
       8449.0943       16.268325
       8450.1990       16.184153
       8451.3037       16.128926
       8452.4085       15.940947
       8453.5132       15.717441
       8454.6179       15.085227
       8455.7226       15.343408
       8456.8274       15.239381
       8457.9321       15.390137
       8459.0368       15.596974
       8460.1416       16.018776
       8461.2463       16.029861
       8462.3510       16.017975
       8463.4558       15.484385
       8464.5605       15.079812
       8465.6652       14.699309
       8466.7700       14.517214
       8467.8747       13.729778
       8468.9794       13.430256
       8470.0842       12.937200
       8471.1889       12.799282
       8472.2936       12.687560
       8473.3984       12.934629
       8474.5031       13.676531
       8475.6078       13.785017
       8476.7126       14.682533
       8477.8173       15.078149
       8478.9220       15.167347
       8480.0268       15.549759
       8481.1315       15.700777
       8482.2362       16.040418
       8483.3410       16.007808
       8484.4457       15.457116
       8485.5504       15.472872
       8486.6551       14.180634
       8487.7599       13.981445
       8488.8646       13.481455
       8489.9693       13.680467
       8491.0741       14.487060
       8492.1788       15.271772
       8493.2835       15.262776
       8494.3883       15.434211
       8495.4930       15.603377
       8496.5977       15.645862
       8497.7025       15.821892
       8498.8072       15.944118
       8499.9119       15.853659
       8501.0167       15.657824
       8502.1214       15.628332
       8503.2261       15.733491
       8504.3309       14.941029
       8505.4356       14.808645
       8506.5403       14.380291
       8507.6451       13.705387
       8508.7498       13.544035
       8509.8545       13.455072
       8510.9593       13.431070
       8512.0640       13.086076
       8513.1687       12.601789
       8514.2734       12.001761
       8515.3782       11.799259
       8516.4829       11.702168
       8517.5876       12.433146
       8518.6924       12.563186
       8519.7971       13.394012
       8520.9018       14.006189
       8522.0066       14.468900
       8523.1113       14.785334
       8524.2160       15.255558
       8525.3208       15.180336
       8526.4255       15.546070
       8527.5302       15.533202
       8528.6350       15.819503
       8529.7397       16.438834
       8530.8444       16.439380
       8531.9492       16.678357
       8533.0539       16.779045
       8534.1586       16.716574
       8535.2634       16.776432
       8536.3681       16.371100
       8537.4728       16.576163
       8538.5776       16.758246
       8539.6823       16.710388
       8540.7870       16.535682
       8541.8918       16.590470
       8542.9965       16.809152
       8544.1012       16.656119
       8545.2059       16.445799
       8546.3107       16.553114
       8547.4154       16.309246
       8548.5201       17.065018
       8549.6249       16.955320
       8550.7296       16.908056
       8551.8343       17.134146
       8552.9391       16.831278
       8554.0438       16.799201
       8555.1485       16.796306
       8556.2533       16.821530
       8557.3580       16.596583
       8558.4627       16.662072
       8559.5675       16.503647
       8560.6722       16.785992
       8561.7769       16.749319
       8562.8817       16.731315
       8563.9864       16.136813
       8565.0911       16.665674
       8566.1959       16.305955
       8567.3006       16.526908
       8568.4053       16.397848
       8569.5101       16.454750
       8570.6148       16.330008
       8571.7195       16.486277
       8572.8242       16.314270
       8573.9290       16.434572
       8575.0337       16.328738
       8576.1384       16.676903
       8577.2432       16.414964
       8578.3479       16.497280
       8579.4526       16.893761
       8580.5574       17.125037
       8581.6621       16.796890
       8582.7668       16.758902
       8583.8716       17.165313
       8584.9763       16.702989
       8586.0810       16.958871
       8587.1858       16.610793
       8588.2905       17.170492
       8589.3952       16.794915
       8590.5000       17.522689
       8591.6047       17.558487
       8592.7094       17.323960
       8593.8142       17.723998
       8594.9189       17.104284
       8596.0236       17.302440
       8597.1284       16.971431
       8598.2331       16.849273
       8599.3378       16.874321
       8600.4425       16.942765
       8601.5473       16.564519
       8602.6520       16.305010
       8603.7567       16.163535
       8604.8615       16.338290
       8605.9662       16.676986
       8607.0709       16.461415
       8608.1757       16.522137
       8609.2804       16.501953
       8610.3851       16.430973
       8611.4899       16.497338
       8612.5946       16.491903
       8613.6993       16.405663
       8614.8041       16.495485
       8615.9088       16.321899
       8617.0135       15.986020
       8618.1183       15.329761
       8619.2230       15.412941
       8620.3277       15.255623
       8621.4325       15.174233
       8622.5372       14.656531
       8623.6419       15.564741
       8624.7467       15.516005
       8625.8514       16.848425
       8626.9561       16.245677
       8628.0609       15.101693
       8629.1656       13.414192
       8630.2703       12.535516
       8631.3750       13.196231
       8632.4798       12.625039
       8633.5845       11.165760
       8634.6892       9.8245192
       8635.7940       8.9029214
       8636.8987       9.2798791
       8638.0034       8.7833590
       8639.1082       10.318501
       8640.2129       12.788479
       8641.3176       14.355657
       8642.4224       13.238908
       8643.5271       12.667391
       8644.6318       11.142232
       8645.7366       10.537858
       8646.8413       10.884562
       8647.9460       11.388262
       8649.0508       12.468960
       8650.1555       13.710757
       8651.2602       13.153731
       8652.3650       12.897901
       8653.4697       13.423437
       8654.5744       12.189948
       8655.6792       12.114922
       8656.7839       12.075918
       8657.8886       11.303518
       8658.9933       11.192435
       8660.0981       10.881505
       8661.2028       9.1192208
       8662.3075       9.5639021
       8663.4123       9.5820825
       8664.5170       9.4076822
       8665.6217       10.806836
       8666.7265       13.010775
       8667.8312       14.260402
       8668.9359       14.515831
       8670.0407       14.082597
       8671.1454       13.351145
       8672.2501       12.537514
       8673.3549       11.364024
       8674.4596       10.919088
       8675.5643       11.256421
       8676.6691       11.663375
       8677.7738       12.468223
       8678.8785       13.418689
       8679.9833       14.299813
       8681.0880       14.574167
       8682.1927       14.114181
       8683.2975       13.256390
       8684.4022       12.088842
       8685.5069       11.737825
       8686.6117       11.926885
       8687.7164       12.235180
       8688.8211       14.513814
       8689.9258       20.349575
       8691.0306       17.932433
       8692.1353       16.469900
       8693.2400       11.253376
       8694.3448       11.194828
       8695.4495       9.9990280
       8696.5542       9.6647565
       8697.6590       11.460374
       8698.7637       12.657073
       8699.8684       13.255636
       8700.9732       13.896307
       8702.0779       14.466421
       8703.1826       14.604505
       8704.2874       14.243763
       8705.3921       14.795436
       8706.4968       15.790053
       8707.6016       16.624298
       8708.7063       16.633180
       8709.8110       17.241636
       8710.9158       16.493078
       8712.0205       16.884204
       8713.1252       16.405568
       8714.2300       15.959919
       8715.3347       15.545458
       8716.4394       15.076751
       8717.5441       15.020784
       8718.6489       15.337794
       8719.7536       15.537862
       8720.8583       15.349779
       8721.9631       15.290364
       8723.0678       14.796241
       8724.1725       14.477425
       8725.2773       14.769643
       8726.3820       15.033137
       8727.4867       15.801914
       8728.5915       15.926392
       8729.6962       16.151465
       8730.8009       15.722524
       8731.9057       15.195908
       8733.0104       14.458429
       8734.1151       14.289824
       8735.2199       15.986976
       8736.3246       13.736106
       8737.4293       13.420614
       8738.5341       12.973052
       8739.6388       12.268719
       8740.7435       11.890370
       8741.8483       11.836929
       8742.9530       12.445634
       8744.0577       14.518489
       8745.1624       15.809128
       8746.2672       16.886663
       8747.3719       19.927527
       8748.4766       21.681790
       8749.5814       15.298491
       8750.6861       15.620060
       8751.7908       10.417525
       8752.8956       10.091271
       8754.0003       11.297833
       8755.1050       10.575295
       8756.2098       13.873416
       8757.3145       14.563990
       8758.4192       15.749263
       8759.5240       16.277456
       8760.6287       16.343549
       8761.7334       15.975883
       8762.8382       15.346359
       8763.9429       15.521691
       8765.0476       15.489761
       8766.1524       16.006289
       8767.2571       14.051824
       8768.3618       13.245841
       8769.4666       11.413057
       8770.5713       12.860962
       8771.6760       11.449639
       8772.7808       12.637576
       8773.8855       14.064373
       8774.9902       14.851794
       8776.0949       14.744432
       8777.1997       14.747697
       8778.3044       14.476869
       8779.4091       15.230874
       8780.5139       15.174729
       8781.6186       16.228252
       8782.7233       20.365799
       8783.8281       15.605906
       8784.9328       16.840033
       8786.0375       13.495767
       8787.1423       13.716982
       8788.2470       13.201455
       8789.3517       11.649912
       8790.4565       12.238290
       8791.5612       13.558169
       8792.6659       14.873541
       8793.7707       15.890721
       8794.8754       16.615391
       8795.9801       16.969072
       8797.0849       16.801641
       8798.1896       16.432914
       8799.2943       15.695512
       8800.3991       15.120849
       8801.5038       13.798611
       8802.6085       13.012444
       8803.7132       13.534388
       8804.8180       13.483391
       8805.9227       14.131458
       8807.0274       14.208089
       8808.1322       13.669385
       8809.2369       12.781794
       8810.3416       14.616816
       8811.4464       18.988835
       8812.5511       24.571206
       8813.6558       20.592382
       8814.7606       18.418305
       8815.8653       18.030334
       8816.9700       18.365680
       8818.0748       17.796881
       8819.1795       18.337000
       8820.2842       17.082634
       8821.3890       17.354111
       8822.4937       17.545660
       8823.5984       14.519604
       8824.7032       13.746140
       8825.8079       13.645880
       8826.9126       13.143496
       8828.0174       12.946976
       8829.1221       13.870165
       8830.2268       14.317064
       8831.3316       14.346498
       8832.4363       14.620717
       8833.5410       14.738944
       8834.6457       15.197602
       8835.7505       15.327185
       8836.8552       15.805356
       8837.9599       16.137580
       8839.0647       15.622972
       8840.1694       15.420001
       8841.2741       15.051131
       8842.3789       15.342921
       8843.4836       15.061947
       8844.5883       14.844501
       8845.6931       14.659848
       8846.7978       14.077404
       8847.9025       14.175032
       8849.0073       14.879055
       8850.1120       14.917824
       8851.2167       15.726853
       8852.3215       16.612868
       8853.4262       16.288012
       8854.5309       16.167646
       8855.6357       15.022882
       8856.7404       14.074966
       8857.8451       13.137298
       8858.9499       13.027832
       8860.0546       14.862817
       8861.1593       16.452821
       8862.2640       17.098699
       8863.3688       17.945109
       8864.4735       17.327028
       8865.5782       16.999242
       8866.6830       16.976041
       8867.7877       15.605585
       8868.8924       16.540265
       8869.9972       16.835129
       8871.1019       17.756667
       8872.2066       16.113691
       8873.3114       16.782214
       8874.4161       17.094612
       8875.5208       17.886207
       8876.6256       17.723879
       8877.7303       17.510784
       8878.8350       16.800635
       8879.9398       15.956410
       8881.0445       15.828172
       8882.1492       15.420306
       8883.2540       15.758364
       8884.3587       16.498953
       8885.4634       16.694239
       8886.5682       16.616861
       8887.6729       16.020302
       8888.7776       14.979383
       8889.8823       14.511112
       8890.9871       14.513676
       8892.0918       14.643095
       8893.1965       15.292261
       8894.3013       15.585309
       8895.4060       15.984721
       8896.5107       16.230865
       8897.6155       16.666812
       8898.7202       16.781691
       8899.8249       17.058229
       8900.9297       17.389734
       8902.0344       17.423520
       8903.1391       17.175881
       8904.2439       16.958061
       8905.3486       16.439201
       8906.4533       16.635198
       8907.5581       16.241851
       8908.6628       17.748014
       8909.7675       17.000554
       8910.8723       17.117305
       8911.9770       17.254251
       8913.0817       17.325816
       8914.1865       16.849014
       8915.2912       17.407407
       8916.3959       17.092941
       8917.5007       16.542931
       8918.6054       15.419254
       8919.7101       15.510553
       8920.8148       15.825123
       8921.9196       15.373193
       8923.0243       16.419344
       8924.1290       17.179636
       8925.2338       17.189567
       8926.3385       17.946068
       8927.4432       18.342576
       8928.5480       18.485832
       8929.6527       17.795751
       8930.7574       17.743912
       8931.8622       17.028674
       8932.9669       16.841548
       8934.0716       16.289974
       8935.1764       16.391891
       8936.2811       16.766321
       8937.3858       17.151471
       8938.4906       17.061854
       8939.5953       16.933178
       8940.7000       16.697615
       8941.8048       16.508737
       8942.9095       16.563236
       8944.0142       17.093158
       8945.1190       17.836710
       8946.2237       18.196629
       8947.3284       18.659422
       8948.4331       18.481208
       8949.5379       18.513322
       8950.6426       18.409143
       8951.7473       18.238436
       8952.8521       17.676246
       8953.9568       17.422355
       8955.0615       17.097604
       8956.1663       16.872654
       8957.2710       16.571861
       8958.3757       17.230623
       8959.4805       17.493805
       8960.5852       17.924146
       8961.6899       17.220131
       8962.7947       16.189059
       8963.8994       16.124527
       8965.0041       15.419378
       8966.1089       17.912191
       8967.2136       18.101247
       8968.3183       18.650666
       8969.4231       19.359507
       8970.5278       19.116607
       8971.6325       18.952576
       8972.7373       18.965003
       8973.8420       19.417707
       8974.9467       17.427338
       8976.0515       17.113382
       8977.1562       17.801976
       8978.2609       18.006858
       8979.3656       18.276718
       8980.4704       18.491198
       8981.5751       18.255759
       8982.6798       18.014336
       8983.7846       17.435588
       8984.8893       17.885207
       8985.9940       18.928390
       8987.0988       19.109856
       8988.2035       19.244552
       8989.3082       17.724820
       8990.4130       17.006970
       8991.5177       17.029343
       8992.6224       17.200733
       8993.7272       13.892213
       8994.8319       14.946988
       8995.9366       18.273454
       8997.0414       19.189713
       8998.1461       19.044042
       8999.2508       18.783693
       9000.3556       19.845994
       9001.4603       19.284042
       9002.5650       18.445237
       9003.6698       18.558869
       9004.7745       18.706792
       9005.8792       18.361021
       9006.9839       20.353205
       9008.0887       20.421921
       9009.1934       19.038595
       9010.2981       18.043408
       9011.4029       19.076927
       9012.5076       18.180824
       9013.6123       17.575000
       9014.7171       18.416506
       9015.8218       19.016148
       9016.9265       18.847749
       9018.0313       19.079677
       9019.1360       19.135041
       9020.2407       19.343519
       9021.3455       18.845624
       9022.4502       19.172892
       9023.5549       19.066992
       9024.6597       18.548632
       9025.7644       18.663110
       9026.8691       17.666346
       9027.9739       17.523131
       9029.0786       18.006021
       9030.1833       18.417361
       9031.2881       18.926515
       9032.3928       18.995727
       9033.4975       19.443668
       9034.6022       19.093385
       9035.7070       19.854538
       9036.8117       19.886546
       9037.9164       20.392841
       9039.0212       20.426244
       9040.1259       19.880198
       9041.2306       19.703014
       9042.3354       19.184825
       9043.4401       18.425635
       9044.5448       18.289866
       9045.6496       18.054223
       9046.7543       18.309660
       9047.8590       18.259370
       9048.9638       18.103518
       9050.0685       17.910314
       9051.1732       17.926669
       9052.2780       18.408738
       9053.3827       18.430050
       9054.4874       18.345323
       9055.5922       18.051402
       9056.6969       18.191917
       9057.8016       17.991533
       9058.9064       18.196288
       9060.0111       18.315919
       9061.1158       18.334227
       9062.2206       18.354178
       9063.3253       18.415872
       9064.4300       18.193191
       9065.5347       18.171577
       9066.6395       17.622756
       9067.7442       18.400098
       9068.8489       20.021059
       9069.9537       19.780736
       9071.0584       21.120466
       9072.1631       22.527546
       9073.2679       18.997666
       9074.3726       15.353132
       9075.4773       13.563263
       9076.5821       15.230164
       9077.6868       15.915782
       9078.7915       17.481362
       9079.8963       18.188160
       9081.0010       19.522082
       9082.1057       19.398559
       9083.2105       17.136214
       9084.3152       16.237700
       9085.4199       18.338396
       9086.5247       17.625776
       9087.6294       17.794806
       9088.7341       18.850071
       9089.8389       18.717031
       9090.9436       18.883927
       9092.0483       19.406684
       9093.1530       19.355710
       9094.2578       18.403804
       9095.3625       19.091652
       9096.4672       19.002109
       9097.5720       19.158572
       9098.6767       18.886888
       9099.7814       18.734208
       9100.8862       18.729875
       9101.9909       18.424179
       9103.0956       19.050140
       9104.2004       18.344540
       9105.3051       18.267982
       9106.4098       18.170971
       9107.5146       18.546974
       9108.6193       18.251516
       9109.7240       18.216249
       9110.8288       18.047738
       9111.9335       17.507956
       9113.0382       18.318450
       9114.1430       18.351604
       9115.2477       18.171119
       9116.3524       18.109741
       9117.4572       18.603881
       9118.5619       18.755702
       9119.6666       18.678423
       9120.7714       18.599823
       9121.8761       18.907386
       9122.9808       19.737589
       9124.0855       19.276968
       9125.1903       19.593225
       9126.2950       18.366250
       9127.3997       17.964177
       9128.5045       17.275001
       9129.6092       17.648930
       9130.7139       18.320437
       9131.8187       17.324257
       9132.9234       17.360742
       9134.0281       17.803934
       9135.1329       17.970480
       9136.2376       17.637573
       9137.3423       17.954567
       9138.4471       17.597574
       9139.5518       17.546184
       9140.6565       17.476355
       9141.7613       17.778538
       9142.8660       18.090999
       9143.9707       18.895569
       9145.0755       18.526451
       9146.1802       19.787355
       9147.2849       22.131018
       9148.3897       22.051005
       9149.4944       21.076903
       9150.5991       15.474489
       9151.7038       16.826876
       9152.8086       16.527929
       9153.9133       15.859203
       9155.0180       17.346400
       9156.1228       17.747817
       9157.2275       17.940018
       9158.3322       17.862062
       9159.4370       17.840526
       9160.5417       17.213044
       9161.6464       17.806329
       9162.7512       17.860095
       9163.8559       17.559198
       9164.9606       17.550773
       9166.0654       17.726815
       9167.1701       16.099422
       9168.2748       19.242667
       9169.3796       17.603821
       9170.4843       18.916035
       9171.5890       16.277343
       9172.6938       17.473488
       9173.7985       17.622661
       9174.9032       16.622956
       9176.0080       17.047074
       9177.1127       16.026255
       9178.2174       16.424735
       9179.3221       16.622588
       9180.4269       17.221367
       9181.5316       16.528533
       9182.6363       17.147170
       9183.7411       17.822989
       9184.8458       17.572373
       9185.9505       19.483229
       9187.0553       21.436745
       9188.1600       17.563725
       9189.2647       17.721910
       9190.3695       16.098695
       9191.4742       13.934035
       9192.5789       16.431288
       9193.6837       16.392911
       9194.7884       18.254758
       9195.8931       17.629851
       9196.9979       17.872951
       9198.1026       17.303945
       9199.2073       17.184822
       9200.3121       17.481165
       9201.4168       16.380845
       9202.5215       16.456553
       9203.6263       16.397517
       9204.7310       16.251255
       9205.8357       16.057295
       9206.9405       16.324308
       9208.0452       17.282923
       9209.1499       17.479323
       9210.2546       17.102038
       9211.3594       17.403279
       9212.4641       16.914054
       9213.5688       19.353716
       9214.6736       18.413049
       9215.7783       19.256641
       9216.8830       18.749651
       9217.9878       18.863689
       9219.0925       15.643594
       9220.1972       15.729403
       9221.3020       14.973876
       9222.4067       15.598952
       9223.5114       16.056374
       9224.6162       17.795743
       9225.7209       18.255311
       9226.8256       17.507414
       9227.9304       16.888189
       9229.0351       16.191243
       9230.1398       17.082437
       9231.2446       18.321827
       9232.3493       16.951633
       9233.4540       14.849495
       9234.5588       16.770122
       9235.6635       17.622575
       9236.7682       16.185979
       9237.8729       16.634286
       9238.9777       17.412499
       9240.0824       17.368881
       9241.1871       17.706596
       9242.2919       16.655614
       9243.3966       16.412151
       9244.5013       16.249255
       9245.6061       15.978732
       9246.7108       16.071735
       9247.8155       15.747429
       9248.9203       16.256029
       9250.0250       16.053996
       9251.1297       16.093494
       9252.2345       15.742098
       9253.3392       16.079668
       9254.4439       16.165341
       9255.5487       16.256448
       9256.6534       15.470877
       9257.7581       15.984781
       9258.8629       16.239185
       9259.9676       16.156818
       9261.0723       16.178815
       9262.1771       16.122939
       9263.2818       16.289408
       9264.3865       16.898901
       9265.4912       16.152478
       9266.5960       16.822548
       9267.7007       16.600753
       9268.8054       16.408966
       9269.9102       15.687868
       9271.0149       16.312563
       9272.1196       16.225183
       9273.2244       16.355390
       9274.3291       16.674198
       9275.4338       18.499809
       9276.5386       20.105617
       9277.6433       21.164148
       9278.7480       20.122900
       9279.8528       18.207747
       9280.9575       15.133250
       9282.0622       14.413427
       9283.1670       15.504256
       9284.2717       14.926489
       9285.3764       15.748101
       9286.4812       15.768788
       9287.5859       16.041807
       9288.6906       17.059442
       9289.7954       16.830642
       9290.9001       17.162382
       9292.0048       15.475794
       9293.1096       15.916745
       9294.2143       15.973860
       9295.3190       16.442335
       9296.4237       15.477728
       9297.5285       15.544433
       9298.6332       15.421053
       9299.7379       15.439131
       9300.8427       15.544527
       9301.9474       15.496154
       9303.0521       15.771193
       9304.1569       16.569730
       9305.2616       16.109396
       9306.3663       15.511341
       9307.4711       14.762100
       9308.5758       14.647155
       9309.6805       15.502420
       9310.7853       14.772096
       9311.8900       14.730492
       9312.9947       15.451086
       9314.0995       15.070048
       9315.2042       15.162749
       9316.3089       15.244720
       9317.4137       15.437403
       9318.5184       15.696674
       9319.6231       15.399194
       9320.7279       15.952673
       9321.8326       14.747367
       9322.9373       14.293390
       9324.0420       14.593751
       9325.1468       15.146034
       9326.2515       14.646000
       9327.3562       14.617264
       9328.4610       14.492361
       9329.5657       15.333041
       9330.6704       15.296783
       9331.7752       15.252186
       9332.8799       14.355892
       9333.9846       14.682862
       9335.0894       14.328355
       9336.1941       14.878519
       9337.2988       15.025945
       9338.4036       15.593355
       9339.5083       14.907790
       9340.6130       16.252570
       9341.7178       17.854952
       9342.8225       16.643692
       9343.9272       16.335312
       9345.0320       16.474223
       9346.1367       14.384116
       9347.2414       15.066177
       9348.3462       13.620340
       9349.4509       14.412192
       9350.5556       14.587518
       9351.6604       14.469797
       9352.7651       14.240943
       9353.8698       14.423008
       9354.9745       13.978047
       9356.0793       14.250132
       9357.1840       14.208921
       9358.2887       13.862986
       9359.3935       14.349248
       9360.4982       15.182141
       9361.6029       14.687904
       9362.7077       14.471296
       9363.8124       14.845497
       9364.9171       13.310682
       9366.0219       14.414458
       9367.1266       14.308478
       9368.2313       13.299210
       9369.3361       13.383461
       9370.4408       13.902184
       9371.5455       13.489476
       9372.6503       13.554787
       9373.7550       13.838135
       9374.8597       13.412955
       9375.9645       14.180161
       9377.0692       14.210738
       9378.1739       15.200656
       9379.2787       16.017811
       9380.3834       16.753976
       9381.4881       15.624794
       9382.5928       13.483667
       9383.6976       12.689929
       9384.8023       13.449705
       9385.9070       13.270350
       9387.0118       11.504348
       9388.1165       12.751634
       9389.2212       13.206093
       9390.3260       12.653911
       9391.4307       13.057725
       9392.5354       13.573192
       9393.6402       13.227302
       9394.7449       13.834433
       9395.8496       13.941602
       9396.9544       13.217473
       9398.0591       13.391247
       9399.1638       13.484579
       9400.2686       13.886054
       9401.3733       13.461966
       9402.4780       13.594856
       9403.5828       12.597161
       9404.6875       13.611580
       9405.7922       13.333458
       9406.8970       12.693919
       9408.0017       13.963527
       9409.1064       13.475427
       9410.2111       13.378262
       9411.3159       13.473340
       9412.4206       14.039129
       9413.5253       13.319478
       9414.6301       12.907704
       9415.7348       13.865789
       9416.8395       14.709983
       9417.9443       14.251171
       9419.0490       13.584595
       9420.1537       13.075211
       9421.2585       14.303080
       9422.3632       14.016311
       9423.4679       16.114951
       9424.5727       17.604164
       9425.6774       15.796326
       9426.7821       15.503293
       9427.8869       11.644801
       9428.9916       12.498826
       9430.0963       14.031357
       9431.2011       12.925403
       9432.3058       13.902872
       9433.4105       14.350247
       9434.5153       14.937086
       9435.6200       13.575036
       9436.7247       13.421305
       9437.8295       13.248035
       9438.9342       15.385519
       9440.0389       15.389053
       9441.1436       14.979265
       9442.2484       14.714073
       9443.3531       12.991374
       9444.4578       12.114501
       9445.5626       14.340584
       9446.6673       13.576443
       9447.7720       13.405373
       9448.8768       13.148849
       9449.9815       13.356773
       9451.0862       13.560146
       9452.1910       13.725403
       9453.2957       13.378890
       9454.4004       14.320725
       9455.5052       12.923263
       9456.6099       11.616234
       9457.7146       15.168615
       9458.8194       15.840869
       9459.9241       16.895828
       9461.0288       14.202177
       9462.1336       13.509466
       9463.2383       14.123923
       9464.3430       12.961931
       9465.4478       13.152902
       9466.5525       13.602289
       9467.6572       14.719516
       9468.7619       13.939780
       9469.8667       14.339320
       9470.9714       13.375452
       9472.0761       14.240971
       9473.1809       14.755960
       9474.2856       14.928609
       9475.3903       15.017976
       9476.4951       14.471409
       9477.5998       13.905995
       9478.7045       13.108991
       9479.8093       14.348688
       9480.9140       15.511384
       9482.0187       15.720458
       9483.1235       16.117671
       9484.2282       14.765798
       9485.3329       14.301236
       9486.4377       14.765610
       9487.5424       13.608719
       9488.6471       13.540724
       9489.7519       14.384067
       9490.8566       14.536219
       9491.9613       14.696978
       9493.0661       15.751297
       9494.1708       16.136894
       9495.2755       16.698210
       9496.3803       16.632518
       9497.4850       16.890655
       9498.5897       17.004761
       9499.6944       17.211791
       9500.7992       16.377085
       9501.9039       14.779234
       9503.0086       14.029797
       9504.1134       14.225011
       9505.2181       12.881453
       9506.3228       13.469629
       9507.4276       13.417068
       9508.5323       14.279890
       9509.6370       13.637354
       9510.7418       13.134798
       9511.8465       12.845620
       9512.9512       14.057278
       9514.0560       14.318888
       9515.1607       13.690004
       9516.2654       13.618185
       9517.3702       13.317040
       9518.4749       13.491202
       9519.5796       13.769925
       9520.6844       14.203133
       9521.7891       13.760812
       9522.8938       14.500349
       9523.9986       14.964492
       9525.1033       14.372540
       9526.2080       14.443810
       9527.3127       15.676504
       9528.4175       18.267002
       9529.5222       21.346787
       9530.6269       25.317951
       9531.7317       23.482515
       9532.8364       25.646720
       9533.9411       19.745349
       9535.0459       14.452684
       9536.1506       16.720690
       9537.2553       15.672313
       9538.3601       14.769948
       9539.4648       15.387192
       9540.5695       17.665492
       9541.6743       16.357477
       9542.7790       14.041825
       9543.8837       18.073812
       9544.9885       15.975579
       9546.0932       7.3984643
       9547.1979       10.020338
       9548.3027       13.311764
       9549.4074       14.843224
       9550.5121       15.223833
       9551.6169       15.598448
       9552.7216       14.904065
       9553.8263       17.145615
       9554.9310       15.175236
       9556.0358       14.952411
       9557.1405       15.922929
       9558.2452       15.813740
