# wavelength flux
       2643.0002      0.49235980
       2643.9313      0.32273298
       2644.8625      0.25125632
       2645.7936      0.45627722
       2646.7247      0.37641251
       2647.6559      0.12206379
       2648.5870      0.16778275
       2649.5181      0.30954399
       2650.4493      0.36645801
       2651.3804      0.25262245
       2652.3116      0.27422441
       2653.2427      0.48583361
       2654.1738     0.023019230
       2655.1050      0.44672032
       2656.0361     0.073843119
       2656.9673      0.28765107
       2657.8984      0.25999812
       2658.8295      0.31577957
       2659.7607      0.41838691
       2660.6918      0.38633459
       2661.6229      0.12924425
       2662.5541      0.32057373
       2663.4852      0.45006651
       2664.4164      0.38659303
       2665.3475      0.44760416
       2666.2786      0.23943217
       2667.2098      0.42478167
       2668.1409      0.42668012
       2669.0721      0.11200710
       2670.0032      0.14100839
       2670.9343      0.32875355
       2671.8655      0.13301682
       2672.7966      0.31801384
       2673.7277      0.19026042
       2674.6589      0.36429910
       2675.5900      0.40277238
       2676.5212      0.18137526
       2677.4523      0.29287910
       2678.3834      0.29005928
       2679.3146      0.12074771
       2680.2457      0.38878564
       2681.1769      0.18875828
       2682.1080      0.24220605
       2683.0391      0.31085248
       2683.9703      0.19087128
       2684.9014      0.13620132
       2685.8325      0.18994444
       2686.7637      0.22650530
       2687.6948      0.24521598
       2688.6260      0.31656403
       2689.5571      0.20991255
       2690.4882      0.24620380
       2691.4194      0.22837083
       2692.3505      0.26702928
       2693.2817      0.21218639
       2694.2128     0.094279018
       2695.1439      0.28970932
       2696.0751      0.26627209
       2697.0062      0.11711208
       2697.9373      0.22897060
       2698.8685      0.25332026
       2699.7996      0.26724349
       2700.7308      0.36184253
       2701.6619      0.21156136
       2702.5930      0.30110070
       2703.5242      0.41645755
       2704.4553      0.43471410
       2705.3865      0.29214225
       2706.3176      0.36365733
       2707.2487      0.21031056
       2708.1799      0.18452322
       2709.1110      0.29032614
       2710.0421      0.26137488
       2710.9733      0.31597812
       2711.9044      0.18873173
       2712.8356      0.23621630
       2713.7667      0.35848196
       2714.6978      0.25471499
       2715.6290      0.21171129
       2716.5601      0.16847122
       2717.4913      0.15456166
       2718.4224      0.26872654
       2719.3535      0.10008127
       2720.2847      0.21471708
       2721.2158      0.24168209
       2722.1469      0.23814282
       2723.0781      0.17679793
       2724.0092      0.13776660
       2724.9404      0.37033591
       2725.8715      0.13155107
       2726.8026      0.26395736
       2727.7338      0.30259268
       2728.6649      0.20980452
       2729.5961      0.31310994
       2730.5272      0.28567516
       2731.4583      0.17540999
       2732.3895      0.30665008
       2733.3206      0.23599835
       2734.2517      0.30124769
       2735.1829      0.24836053
       2736.1140      0.22157278
       2737.0452      0.27703659
       2737.9763      0.18170165
       2738.9074      0.18577238
       2739.8386      0.13168118
       2740.7697      0.22071612
       2741.7009      0.17669135
       2742.6320      0.28555070
       2743.5631      0.30890188
       2744.4943      0.19814855
       2745.4254      0.29756221
       2746.3565      0.31378564
       2747.2877      0.26342315
       2748.2188      0.31314403
       2749.1500      0.37253682
       2750.0811      0.21782721
       2751.0122      0.22251362
       2751.9434      0.32585087
       2752.8745      0.31657174
       2753.8057      0.21800788
       2754.7368      0.23843418
       2755.6679      0.24936392
       2756.5991      0.17541207
       2757.5302      0.23191295
       2758.4613      0.21871206
       2759.3925      0.19746881
       2760.3236      0.27462608
       2761.2548      0.15650999
       2762.1859      0.13530383
       2763.1170      0.20601022
       2764.0482      0.11272084
       2764.9793      0.16277448
       2765.9105      0.28902690
       2766.8416      0.25943114
       2767.7727      0.20735878
       2768.7039      0.12782371
       2769.6350      0.26077034
       2770.5661      0.14051789
       2771.4973      0.15273304
       2772.4284      0.17979128
       2773.3596      0.24167930
       2774.2907      0.19863009
       2775.2218      0.19802258
       2776.1530      0.13049253
       2777.0841      0.27136339
       2778.0153      0.31538324
       2778.9464      0.34952489
       2779.8775      0.18070205
       2780.8087      0.14042569
       2781.7398      0.18795806
       2782.6709      0.20011342
       2783.6021      0.35976920
       2784.5332      0.21749640
       2785.4644      0.18778734
       2786.3955      0.32106827
       2787.3266      0.32791965
       2788.2578      0.18395198
       2789.1889      0.25050807
       2790.1201      0.17805340
       2791.0512      0.30030826
       2791.9823      0.29815148
       2792.9135      0.24298392
       2793.8446      0.38412654
       2794.7757      0.36618698
       2795.7069      0.31462753
       2796.6380      0.29145498
       2797.5692      0.29469865
       2798.5003      0.31935323
       2799.4314      0.21271974
       2800.3626      0.31601344
       2801.2937      0.38198737
       2802.2249      0.36729652
       2803.1560      0.28071227
       2804.0871      0.31395771
       2805.0183      0.23070029
       2805.9494      0.31369489
       2806.8805      0.19571639
       2807.8117      0.37746435
       2808.7428      0.25326676
       2809.6740      0.33870060
       2810.6051      0.34518281
       2811.5362      0.30590710
       2812.4674      0.32065192
       2813.3985      0.33934257
       2814.3297      0.30727441
       2815.2608      0.29806306
       2816.1919      0.36649170
       2817.1231      0.32739235
       2818.0542      0.32057679
       2818.9853      0.26315503
       2819.9165      0.27493257
       2820.8476      0.39670842
       2821.7788      0.34466986
       2822.7099      0.35058686
       2823.6410      0.26102130
       2824.5722      0.27109837
       2825.5033      0.17647332
       2826.4345      0.31459225
       2827.3656      0.30061449
       2828.2967      0.25541166
       2829.2279      0.28693128
       2830.1590      0.26974998
       2831.0901      0.25373766
       2832.0213      0.40685974
       2832.9524      0.30233391
       2833.8836      0.31473827
       2834.8147      0.23560703
       2835.7458      0.26103744
       2836.6770      0.21715089
       2837.6081      0.26035419
       2838.5393      0.24517315
       2839.4704      0.25676344
       2840.4015      0.28222224
       2841.3327      0.28598509
       2842.2638      0.27085079
       2843.1949      0.33893775
       2844.1261      0.41972215
       2845.0572      0.33554318
       2845.9884      0.30742301
       2846.9195      0.24101892
       2847.8506      0.28873786
       2848.7818      0.33452880
       2849.7129      0.31454814
       2850.6441      0.27151814
       2851.5752      0.37396680
       2852.5063      0.31043755
       2853.4375      0.26480136
       2854.3686      0.28340903
       2855.2997      0.36495608
       2856.2309      0.30323817
       2857.1620      0.22694386
       2858.0932      0.28082613
       2859.0243      0.33806466
       2859.9554      0.26042248
       2860.8866      0.33602031
       2861.8177      0.31535411
       2862.7489      0.30592957
       2863.6800      0.32876381
       2864.6111      0.28821219
       2865.5423      0.31769245
       2866.4734      0.33390128
       2867.4045      0.25486130
       2868.3357      0.28892451
       2869.2668      0.27156001
       2870.1980      0.34915518
       2871.1291      0.31088554
       2872.0602      0.30900386
       2872.9914      0.25875360
       2873.9225      0.32089322
       2874.8537      0.27695479
       2875.7848      0.34309779
       2876.7159      0.40120152
       2877.6471      0.36510209
       2878.5782      0.36201674
       2879.5093      0.26151088
       2880.4405      0.39593758
       2881.3716      0.31531584
       2882.3028      0.31300400
       2883.2339      0.32403018
       2884.1650      0.28656004
       2885.0962      0.32256453
       2886.0273      0.23777489
       2886.9585      0.39257440
       2887.8896      0.36603784
       2888.8207      0.32497233
       2889.7519      0.26307122
       2890.6830      0.34400092
       2891.6141      0.31028468
       2892.5453      0.44496037
       2893.4764      0.39104358
       2894.4076      0.35293542
       2895.3387      0.31167502
       2896.2698      0.35532970
       2897.2010      0.33371608
       2898.1321      0.33667517
       2899.0633      0.33876609
       2899.9944      0.33692241
       2900.9255      0.30918964
       2901.8567      0.31639478
       2902.7878      0.33988005
       2903.7189      0.43643342
       2904.6501      0.37700184
       2905.5812      0.32826895
       2906.5124      0.37167120
       2907.4435      0.41777977
       2908.3746      0.31287205
       2909.3058      0.36981279
       2910.2369      0.36363470
       2911.1681      0.37058798
       2912.0992      0.35035975
       2913.0303      0.33717087
       2913.9615      0.30069894
       2914.8926      0.35092193
       2915.8237      0.36560656
       2916.7549      0.34269180
       2917.6860      0.39667248
       2918.6172      0.35804438
       2919.5483      0.34657652
       2920.4794      0.40204341
       2921.4106      0.39772307
       2922.3417      0.37417101
       2923.2729      0.29822482
       2924.2040      0.29230608
       2925.1351      0.33950221
       2926.0663      0.26771111
       2926.9974      0.22569957
       2927.9285      0.38988136
       2928.8597      0.38974065
       2929.7908      0.34765122
       2930.7220      0.38424283
       2931.6531      0.31609975
       2932.5842      0.32721508
       2933.5154      0.35660043
       2934.4465      0.42928707
       2935.3777      0.35879103
       2936.3088      0.34792232
       2937.2399      0.39733038
       2938.1711      0.35220695
       2939.1022      0.37073623
       2940.0333      0.34766137
       2940.9645      0.33536621
       2941.8956      0.32053170
       2942.8268      0.37598586
       2943.7579      0.42870438
       2944.6890      0.47203785
       2945.6202      0.36332977
       2946.5513      0.46770535
       2947.4825      0.37340826
       2948.4136      0.42123005
       2949.3447      0.47375153
       2950.2759      0.46147441
       2951.2070      0.45846169
       2952.1381      0.49591269
       2953.0693      0.47493862
       2954.0004      0.51793324
       2954.9316      0.45611773
       2955.8627      0.39132773
       2956.7938      0.33268443
       2957.7250      0.43424436
       2958.6561      0.39823617
       2959.5873      0.36984384
       2960.5184      0.35248922
       2961.4495      0.40164935
       2962.3807      0.34389053
       2963.3118      0.35523629
       2964.2429      0.37647469
       2965.1741      0.47821804
       2966.1052      0.35646763
       2967.0364      0.31560791
       2967.9675      0.41899392
       2968.8986      0.43890247
       2969.8298      0.41040848
       2970.7609      0.43740878
       2971.6921      0.37750245
       2972.6232      0.43406578
       2973.5543      0.40103535
       2974.4855      0.33484130
       2975.4166      0.31168755
       2976.3477      0.31271983
       2977.2789      0.29595769
       2978.2100      0.29938056
       2979.1412      0.30664664
       2980.0723      0.34445169
       2981.0034      0.35395165
       2981.9346      0.32978765
       2982.8657      0.43678719
       2983.7969      0.33249079
       2984.7280      0.38244223
       2985.6591      0.39675753
       2986.5903      0.34760718
       2987.5214      0.34828818
       2988.4525      0.31279869
       2989.3837      0.32848421
       2990.3148      0.37860786
       2991.2460      0.40154620
       2992.1771      0.36553388
       2993.1082      0.38642310
       2994.0394      0.40303724
       2994.9705      0.32753605
       2995.9017      0.41906889
       2996.8328      0.45994209
       2997.7639      0.36894110
       2998.6951      0.34979055
       2999.6262      0.36776596
       3000.5573      0.46452484
       3001.4885      0.40218159
       3002.4196      0.41104256
       3003.3508      0.43538185
       3004.2819      0.44455509
       3005.2130      0.39885070
       3006.1442      0.40773050
       3007.0753      0.40900981
       3008.0065      0.47757036
       3008.9376      0.30670830
       3009.8687      0.38112200
       3010.7999      0.36707042
       3011.7310      0.34135924
       3012.6621      0.38363917
       3013.5933      0.36392956
       3014.5244      0.41618006
       3015.4556      0.32200486
       3016.3867      0.40395535
       3017.3178      0.35809737
       3018.2490      0.40053655
       3019.1801      0.37757373
       3020.1113      0.41837071
       3021.0424      0.44258223
       3021.9735      0.44742933
       3022.9047      0.42272510
       3023.8358      0.45692295
       3024.7669      0.48407396
       3025.6981      0.44016952
       3026.6292      0.44305935
       3027.5604      0.41938441
       3028.4915      0.38660000
       3029.4226      0.39508386
       3030.3538      0.43951208
       3031.2849      0.46254465
       3032.2161      0.44942239
       3033.1472      0.42532870
       3034.0783      0.44316515
       3035.0095      0.43640674
       3035.9406      0.47676923
       3036.8717      0.50161711
       3037.8029      0.49268607
       3038.7340      0.43030359
       3039.6652      0.36488418
       3040.5963      0.38522334
       3041.5274      0.42129506
       3042.4586      0.41497476
       3043.3897      0.35377962
       3044.3209      0.36262698
       3045.2520      0.43896105
       3046.1831      0.36670356
       3047.1143      0.38657184
       3048.0454      0.35293737
       3048.9765      0.35119151
       3049.9077      0.43037107
       3050.8388      0.36287260
       3051.7700      0.38531779
       3052.7011      0.35913035
       3053.6322      0.37162380
       3054.5634      0.34013809
       3055.4945      0.35900778
       3056.4257      0.36357829
       3057.3568      0.33776784
       3058.2879      0.38014075
       3059.2191      0.40429043
       3060.1502      0.36563042
       3061.0813      0.35753347
       3062.0125      0.45900240
       3062.9436      0.40969170
       3063.8748      0.37117267
       3064.8059      0.38788630
       3065.7370      0.40857831
       3066.6682      0.42038251
       3067.5993      0.37602857
       3068.5305      0.36504684
       3069.4616      0.40377944
       3070.3927      0.44792539
       3071.3239      0.37921633
       3072.2550      0.41334521
       3073.1861      0.39258607
       3074.1173      0.42913280
       3075.0484      0.40182984
       3075.9796      0.37356245
       3076.9107      0.36801580
       3077.8418      0.28287443
       3078.7730      0.36673601
       3079.7041      0.39857255
       3080.6353      0.39496032
       3081.5664      0.38981396
       3082.4975      0.36240102
       3083.4287      0.35823020
       3084.3598      0.34661222
       3085.2909      0.40729671
       3086.2221      0.34388456
       3087.1532      0.40282186
       3088.0844      0.36596417
       3089.0155      0.35332867
       3089.9466      0.37951093
       3090.8778      0.35303983
       3091.8089      0.36397254
       3092.7401      0.36710017
       3093.6712      0.35639544
       3094.6023      0.28565344
       3095.5335      0.37726010
       3096.4646      0.37655882
       3097.3957      0.30505869
       3098.3269      0.36075290
       3099.2580      0.37087583
       3100.1892      0.35744764
       3101.1203      0.42412674
       3102.0514      0.39688754
       3102.9826      0.36402170
       3103.9137      0.45869408
       3104.8449      0.38379252
       3105.7760      0.39783429
       3106.7071      0.47382709
       3107.6383      0.52404888
       3108.5694      0.40546402
       3109.5005      0.43683816
       3110.4317      0.38853596
       3111.3628      0.42281382
       3112.2940      0.39745054
       3113.2251      0.39609962
       3114.1562      0.46378261
       3115.0874      0.33636239
       3116.0185      0.43804673
       3116.9497      0.47747770
       3117.8808      0.41908591
       3118.8119      0.35532856
       3119.7431      0.42439319
       3120.6742      0.42626151
       3121.6053      0.39247599
       3122.5365      0.39677936
       3123.4676      0.40750238
       3124.3988      0.37944578
       3125.3299      0.36603702
       3126.2610      0.45447439
       3127.1922      0.38568626
       3128.1233      0.39117568
       3129.0545      0.40948612
       3129.9856      0.42108686
       3130.9167      0.37223776
       3131.8479      0.39296629
       3132.7790      0.37307560
       3133.7101      0.41578616
       3134.6413      0.44198483
       3135.5724      0.38775571
       3136.5036      0.39424407
       3137.4347      0.37333010
       3138.3658      0.40553662
       3139.2970      0.46932069
       3140.2281      0.38224108
       3141.1593      0.45429403
       3142.0904      0.42863426
       3143.0215      0.45452005
       3143.9527      0.46934852
       3144.8838      0.43417924
       3145.8149      0.44763385
       3146.7461      0.55992194
       3147.6772      0.44817897
       3148.6084      0.42913830
       3149.5395      0.37147166
       3150.4706      0.46313917
       3151.4018      0.47503828
       3152.3329      0.46657284
       3153.2641      0.48890819
       3154.1952      0.37720765
       3155.1263      0.43502396
       3156.0575      0.46619027
       3156.9886      0.45148885
       3157.9197      0.40084395
       3158.8509      0.37585565
       3159.7820      0.36804752
       3160.7132      0.42082821
       3161.6443      0.43590466
       3162.5754      0.44749995
       3163.5066      0.40483851
       3164.4377      0.51385676
       3165.3689      0.41876724
       3166.3000      0.41730037
       3167.2311      0.48570162
       3168.1623      0.51753734
       3169.0934      0.43588134
       3170.0245      0.47724544
       3170.9557      0.45909476
       3171.8868      0.47091806
       3172.8180      0.54051417
       3173.7491      0.55680822
       3174.6802      0.46013408
       3175.6114      0.49807877
       3176.5425      0.50182018
       3177.4737      0.44044942
       3178.4048      0.43060203
       3179.3359      0.49618373
       3180.2671      0.40004796
       3181.1982      0.48146164
       3182.1293      0.48968874
       3183.0605      0.40714725
       3183.9916      0.39257901
       3184.9228      0.46407934
       3185.8539      0.44100897
       3186.7850      0.51460370
       3187.7162      0.41310778
       3188.6473      0.49693669
       3189.5785      0.47043281
       3190.5096      0.52414814
       3191.4407      0.47916767
       3192.3719      0.43537545
       3193.3030      0.51948268
       3194.2341      0.46408102
       3195.1653      0.50933652
       3196.0964      0.40699492
       3197.0276      0.47586391
       3197.9587      0.44643769
       3198.8898      0.48070136
       3199.8210      0.46859221
       3200.7521      0.47577267
       3201.6833      0.53517101
       3202.6144      0.44997339
       3203.5455      0.49093246
       3204.4767      0.54727530
       3205.4078      0.54305558
       3206.3389      0.54773175
       3207.2701      0.51216116
       3208.2012      0.50354389
       3209.1324      0.47106396
       3210.0635      0.54335754
       3210.9946      0.49092818
       3211.9258      0.51219125
       3212.8569      0.48641879
       3213.7881      0.44678731
       3214.7192      0.45408947
       3215.6503      0.47512186
       3216.5815      0.48712735
       3217.5126      0.49640106
       3218.4437      0.50277212
       3219.3749      0.49649232
       3220.3060      0.54872908
       3221.2372      0.46563201
       3222.1683      0.48998995
       3223.0994      0.53167752
       3224.0306      0.57708200
       3224.9617      0.49281464
       3225.8929      0.50159640
       3226.8240      0.51749766
       3227.7551      0.49244363
       3228.6863      0.47723793
       3229.6174      0.46759647
       3230.5485      0.45520088
       3231.4797      0.44640921
       3232.4108      0.45691376
       3233.3420      0.51691466
       3234.2731      0.43431210
       3235.2042      0.50197171
       3236.1354      0.46926122
       3237.0665      0.49442212
       3237.9977      0.47472637
       3238.9288      0.43252021
       3239.8599      0.50512311
       3240.7911      0.51618671
       3241.7222      0.52396279
       3242.6533      0.53836895
       3243.5845      0.48655333
       3244.5156      0.47441964
       3245.4468      0.49181156
       3246.3779      0.54166175
       3247.3090      0.52427284
       3248.2402      0.51605868
       3249.1713      0.56516256
       3250.1025      0.54611698
       3251.0336      0.57933799
       3251.9647      0.54885251
       3252.8959      0.56801720
       3253.8270      0.54926413
       3254.7581      0.57479736
       3255.6893      0.51574482
       3256.6204      0.55272504
       3257.5516      0.54533898
       3258.4827      0.60530625
       3259.4138      0.56992628
       3260.3450      0.55076292
       3261.2761      0.55341238
       3262.2073      0.62004634
       3263.1384      0.59435963
       3264.0695      0.56004325
       3265.0007      0.57528785
       3265.9318      0.63874076
       3266.8629      0.57415199
       3267.7941      0.58894044
       3268.7252      0.51861987
       3269.6564      0.59178439
       3270.5875      0.51261892
       3271.5186      0.59266796
       3272.4498      0.62147574
       3273.3809      0.55230963
       3274.3121      0.58048950
       3275.2432      0.61570648
       3276.1743      0.55394067
       3277.1055      0.55760030
       3278.0366      0.58432950
       3278.9677      0.53279029
       3279.8989      0.59756459
       3280.8300      0.53676814
       3281.7612      0.55051016
       3282.6923      0.60383345
       3283.6234      0.52372336
       3284.5546      0.56925851
       3285.4857      0.54806481
       3286.4169      0.54457099
       3287.3480      0.53719128
       3288.2791      0.58121153
       3289.2103      0.59026774
       3290.1414      0.52726518
       3291.0725      0.56047482
       3292.0037      0.65555051
       3292.9348      0.61688918
       3293.8660      0.59585737
       3294.7971      0.57578559
       3295.7282      0.62631982
       3296.6594      0.61222008
       3297.5905      0.59663527
       3298.5217      0.65478070
       3299.4528      0.61457492
       3300.3839      0.64637800
       3301.3151      0.65810434
       3302.2462      0.63676438
       3303.1773      0.64952505
       3304.1085      0.60262566
       3305.0396      0.63713690
       3305.9708      0.62002771
       3306.9019      0.61418047
       3307.8330      0.61145645
       3308.7642      0.63106513
       3309.6953      0.60804516
       3310.6265      0.56738261
       3311.5576      0.59417022
       3312.4887      0.58268339
       3313.4199      0.61151618
       3314.3510      0.57910628
       3315.2821      0.58879694
       3316.2133      0.57324489
       3317.1444      0.56044170
       3318.0756      0.65088958
       3319.0067      0.66420973
       3319.9378      0.55508899
       3320.8690      0.65243651
       3321.8001      0.56828842
       3322.7313      0.60846765
       3323.6624      0.58616346
       3324.5935      0.61619931
       3325.5247      0.58315056
       3326.4558      0.59729655
       3327.3869      0.56976282
       3328.3181      0.62126618
       3329.2492      0.64164316
       3330.1804      0.57040398
       3331.1115      0.57146054
       3332.0426      0.62909279
       3332.9738      0.66938754
       3333.9049      0.62135322
       3334.8361      0.57472573
       3335.7672      0.57632091
       3336.6983      0.62681919
       3337.6295      0.55746308
       3338.5606      0.58022654
       3339.4917      0.58732081
       3340.4229      0.59918704
       3341.3540      0.54747144
       3342.2852      0.56983102
       3343.2163      0.59106800
       3344.1474      0.60088318
       3345.0786      0.60284292
       3346.0097      0.63440850
       3346.9409      0.58584259
       3347.8720      0.62586705
       3348.8031      0.59511744
       3349.7343      0.62597394
       3350.6654      0.57900667
       3351.5965      0.59185403
       3352.5277      0.55622484
       3353.4588      0.58114748
       3354.3900      0.56718980
       3355.3211      0.58852248
       3356.2522      0.69006776
       3357.1834      0.58772676
       3358.1145      0.67493683
       3359.0457      0.59733274
       3359.9768      0.62927999
       3360.9079      0.58363776
       3361.8391      0.51857441
       3362.7702      0.55226522
       3363.7013      0.54522529
       3364.6325      0.53188099
       3365.5636      0.52842929
       3366.4948      0.54520833
       3367.4259      0.57250617
       3368.3570      0.51873607
       3369.2882      0.57630934
       3370.2193      0.52912191
       3371.1505      0.57671383
       3372.0816      0.54015000
       3373.0127      0.55779233
       3373.9439      0.50745169
       3374.8750      0.55430585
       3375.8061      0.55368378
       3376.7373      0.52262144
       3377.6684      0.53545564
       3378.5996      0.59628188
       3379.5307      0.55775779
       3380.4618      0.54075366
       3381.3930      0.56049024
       3382.3241      0.53872736
       3383.2553      0.59546875
       3384.1864      0.57569666
       3385.1175      0.58350622
       3386.0487      0.64664591
       3386.9798      0.57567124
       3387.9109      0.56471974
       3388.8421      0.57142005
       3389.7732      0.57061543
       3390.7044      0.55703954
       3391.6355      0.62205438
       3392.5666      0.60616946
       3393.4978      0.60816309
       3394.4289      0.59436404
       3395.3601      0.61562866
       3396.2912      0.58803060
       3397.2223      0.59463286
       3398.1535      0.59802052
       3399.0846      0.62361025
       3400.0157      0.59273140
       3400.9469      0.65926187
       3401.8780      0.59586992
       3402.8092      0.65759279
       3403.7403      0.66988523
       3404.6714      0.68043986
       3405.6026      0.63699787
       3406.5337      0.62577143
       3407.4649      0.58416566
       3408.3960      0.63175621
       3409.3271      0.67918998
       3410.2583      0.63721415
       3411.1894      0.60421793
       3412.1205      0.59443585
       3413.0517      0.59159116
       3413.9828      0.58110036
       3414.9140      0.64358192
       3415.8451      0.62996159
       3416.7762      0.57964029
       3417.7074      0.58671245
       3418.6385      0.56454921
       3419.5697      0.58159403
       3420.5008      0.70133812
       3421.4319      0.61560560
       3422.3631      0.63736113
       3423.2942      0.63909326
       3424.2253      0.62966426
       3425.1565      0.69712307
       3426.0876      0.66151192
       3427.0188      0.68465999
       3427.9499      0.68653453
       3428.8810      0.69125252
       3429.8122      0.67137614
       3430.7433      0.69196116
       3431.6745      0.64262254
       3432.6056      0.67442287
       3433.5367      0.73567211
       3434.4679      0.64588030
       3435.3990      0.70725958
       3436.3301      0.65626745
       3437.2613      0.62568524
       3438.1924      0.66560345
       3439.1236      0.63244631
       3440.0547      0.68296003
       3440.9858      0.71573475
       3441.9170      0.66197264
       3442.8481      0.63834103
       3443.7793      0.64110371
       3444.7104      0.59527635
       3445.6415      0.63057958
       3446.5727      0.59917814
       3447.5038      0.58845649
       3448.4349      0.59710833
       3449.3661      0.58866562
       3450.2972      0.65983403
       3451.2284      0.65694327
       3452.1595      0.66375163
       3453.0906      0.67407671
       3454.0218      0.69238380
       3454.9529      0.75550345
       3455.8841      0.70435867
       3456.8152      0.68289373
       3457.7463      0.68482071
       3458.6775      0.70191298
       3459.6086      0.72220466
       3460.5397      0.69215925
       3461.4709      0.67078327
       3462.4020      0.66354878
       3463.3332      0.65608801
       3464.2643      0.70270986
       3465.1954      0.69115392
       3466.1266      0.63895664
       3467.0577      0.69311011
       3467.9889      0.70153180
       3468.9200      0.70017254
       3469.8511      0.77233639
       3470.7823      0.73947746
       3471.7134      0.70942234
       3472.6445      0.67004729
       3473.5757      0.70118885
       3474.5068      0.74787370
       3475.4380      0.70261202
       3476.3691      0.71109587
       3477.3002      0.66487824
       3478.2314      0.73136423
       3479.1625      0.57947220
       3480.0937      0.68218697
       3481.0248      0.63735672
       3481.9559      0.66069211
       3482.8871      0.67854003
       3483.8182      0.65062144
       3484.7493      0.72916731
       3485.6805      0.72763874
       3486.6116      0.69268314
       3487.5428      0.73056825
       3488.4739      0.69603263
       3489.4050      0.75619947
       3490.3362      0.77154559
       3491.2673      0.73000231
       3492.1985      0.72528008
       3493.1296      0.68429219
       3494.0607      0.71990335
       3494.9919      0.72890772
       3495.9230      0.70689674
       3496.8541      0.67340219
       3497.7853      0.69074707
       3498.7164      0.70749965
       3499.6476      0.63764796
       3500.5787      0.68963439
       3501.5098      0.70152302
       3502.4410      0.69667126
       3503.3721      0.72240676
       3504.3033      0.72780886
       3505.2344      0.74937741
       3506.1655      0.82206782
       3507.0967      0.71926886
       3508.0278      0.81126260
       3508.9589      0.82107193
       3509.8901      0.74670822
       3510.8212      0.82883988
       3511.7524      0.71313051
       3512.6835      0.81402822
       3513.6146      0.76292352
       3514.5458      0.77447707
       3515.4769      0.71967082
       3516.4081      0.81631399
       3517.3392      0.69697522
       3518.2703      0.80622794
       3519.2015      0.73021303
       3520.1326      0.70933584
       3521.0637      0.71766016
       3521.9949      0.77680354
       3522.9260      0.76112272
       3523.8572      0.77667975
       3524.7883      0.75853635
       3525.7194      0.79697307
       3526.6506      0.76959349
       3527.5817      0.68845358
       3528.5129      0.77898685
       3529.4440      0.71892034
       3530.3751      0.66805203
       3531.3063      0.73147039
       3532.2374      0.76585906
       3533.1685      0.77466253
       3534.0997      0.74521166
       3535.0308      0.80176676
       3535.9620      0.80453533
       3536.8931      0.79111182
       3537.8242      0.82366217
       3538.7554      0.79923095
       3539.6865      0.79299292
       3540.6177      0.83611791
       3541.5488      0.79461240
       3542.4799      0.89152924
       3543.4111      0.81221129
       3544.3422      0.86119693
       3545.2733      0.84934091
       3546.2045      0.84168020
       3547.1356      0.85750303
       3548.0668      0.83013848
       3548.9979      0.90329365
       3549.9290      0.80210239
       3550.8602      0.81440175
       3551.7913      0.84147258
       3552.7225      0.83676775
       3553.6536      0.84588810
       3554.5847      0.78856794
       3555.5159      0.83395432
       3556.4470      0.77254527
       3557.3781      0.77339541
       3558.3093      0.83026334
       3559.2404      0.78076104
       3560.1716      0.84597365
       3561.1027      0.85714936
       3562.0338      0.80781576
       3562.9650      0.86301648
       3563.8961      0.78055950
       3564.8273      0.83661027
       3565.7584      0.79703381
       3566.6895      0.78336524
       3567.6207      0.84458981
       3568.5518      0.73457922
       3569.4829      0.83050500
       3570.4141      0.76891711
       3571.3452      0.77156237
       3572.2764      0.66270875
       3573.2075      0.74289092
       3574.1386      0.75459431
       3575.0698      0.72739477
       3576.0009      0.84626453
       3576.9321      0.77419921
       3577.8632      0.75785335
       3578.7943      0.76432365
       3579.7255      0.79953942
       3580.6566      0.89523194
       3581.5877      0.73879105
       3582.5189      0.75094075
       3583.4500      0.70156777
       3584.3812      0.76659383
       3585.3123      0.72074088
       3586.2434      0.67145588
       3587.1746      0.69109788
       3588.1057      0.73160788
       3589.0369      0.63774472
       3589.9680      0.70582059
       3590.8991      0.63153519
       3591.8303      0.70016667
       3592.7614      0.71644767
       3593.6925      0.76236400
       3594.6237      0.76342595
       3595.5548      0.77472280
       3596.4860      0.86127071
       3597.4171      0.90544299
       3598.3482      0.84656555
       3599.2794      0.91022173
       3600.2105      0.88053076
       3601.1417       1.0078827
       3602.0728      0.91537653
       3603.0039      0.96137436
       3603.9351      0.90688538
       3604.8662      0.93501932
       3605.7973      0.97059620
       3606.7285      0.91136121
       3607.6596      0.91316123
       3608.5908      0.89172053
       3609.5219      0.82885355
       3610.4530      0.73894645
       3611.3842      0.84269715
       3612.3153      0.83840672
       3613.2465      0.74723202
       3614.1776      0.76434026
       3615.1087      0.78718324
       3616.0399      0.85984153
       3616.9710      0.84384137
       3617.9021      0.88202663
       3618.8333      0.92129036
       3619.7644      0.89385867
       3620.6956      0.85358635
       3621.6267      0.88584392
       3622.5578      0.85246643
       3623.4890      0.83452377
       3624.4201      0.83369545
       3625.3513      0.83426126
       3626.2824      0.97801398
       3627.2135      0.86494136
       3628.1447      0.99221806
       3629.0758       1.0009138
       3630.0069      0.97248981
       3630.9381       1.0298203
       3631.8692      0.88681861
       3632.8004      0.96176317
       3633.7315      0.98317198
       3634.6626      0.84711198
       3635.5938      0.89427805
       3636.5249      0.85032416
       3637.4561      0.85584348
       3638.3872      0.84610531
       3639.3183      0.86748625
       3640.2495      0.88463969
       3641.1806      0.91142536
       3642.1117      0.90914374
       3643.0429       1.0404246
       3643.9740       1.0232869
       3644.9052      0.91734887
       3645.8363      0.91032324
       3646.7674      0.93575542
       3647.6986      0.94487712
       3648.6297      0.88002913
       3649.5609      0.94421251
       3650.4920      0.91041172
       3651.4231      0.93619751
       3652.3543      0.96724467
       3653.2854      0.88109422
       3654.2165      0.93911371
       3655.1477      0.94133738
       3656.0788      0.90415248
       3657.0100       1.0394546
       3657.9411       1.1110391
       3658.8722       1.0529814
       3659.8034       1.0446736
       3660.7345       1.0700853
       3661.6657       1.0561357
       3662.5968       1.0425628
       3663.5279       1.0912537
       3664.4591       1.1108637
       3665.3902       1.1328546
       3666.3213       1.0379905
       3667.2525       1.0699515
       3668.1836       1.0271277
       3669.1148       1.0514262
       3670.0459       1.0661193
       3670.9770       1.0192442
       3671.9082       1.0647929
       3672.8393       1.0769490
       3673.7705       1.0493338
       3674.7016       1.0133108
       3675.6327       1.0594952
       3676.5639       1.0600768
       3677.4950       1.0645370
       3678.4261       1.0963727
       3679.3573       1.0576399
       3680.2884       1.0271067
       3681.2196      0.94727232
       3682.1507       1.0829127
       3683.0818      0.97351021
       3684.0130      0.98543267
       3684.9441      0.99245122
       3685.8753      0.98981795
       3686.8064      0.98671060
       3687.7375      0.97601876
       3688.6687      0.95503388
       3689.5998      0.88738121
       3690.5309      0.96135112
       3691.4621      0.96226955
       3692.3932      0.99986766
       3693.3244      0.97486718
       3694.2555      0.99951821
       3695.1866       1.0078917
       3696.1178       1.0154543
       3697.0489       1.0727538
       3697.9801       1.0368576
       3698.9112       1.0106280
       3699.8423       1.0691226
       3700.7735       1.0999696
       3701.7046       1.1066141
       3702.6357       1.1148372
       3703.5669       1.1245551
       3704.4980       1.0608781
       3705.4292       1.0198063
       3706.3603       1.0246745
       3707.2914      0.94855205
       3708.2226      0.94625532
       3709.1537       1.0298882
       3710.0849      0.95949882
       3711.0160      0.90827436
       3711.9471      0.90972969
       3712.8783      0.98048751
       3713.8094      0.99099287
       3714.7405       1.1114022
       3715.6717       1.0750611
       3716.6028       1.1348634
       3717.5340       1.2513436
       3718.4651       1.2660226
       3719.3962       1.0460221
       3720.3274       1.1185007
       3721.2585       1.0727640
       3722.1897       1.0266406
       3723.1208      0.99329022
       3724.0519      0.89263144
       3724.9831      0.96548523
       3725.9142       1.0323112
       3726.8453       1.1370872
       3727.7765       1.2591533
       3728.7076       1.2274289
       3729.6388       1.4122584
       3730.5699       1.4197189
       3731.5010       1.4331232
       3732.4322       1.4205681
       3733.3633       1.3219328
       3734.2945       1.2737009
       3735.2256       1.1235678
       3736.1567       1.0668169
       3737.0879      0.98378161
       3738.0190      0.87307807
       3738.9501      0.91555874
       3739.8813      0.83737644
       3740.8124      0.94617949
       3741.7436      0.99288556
       3742.6747       1.0185081
       3743.6058       1.0594060
       3744.5370       1.0201893
       3745.4681       1.0858639
       3746.3993       1.0414367
       3747.3304       1.0423820
       3748.2615       1.0235544
       3749.1927      0.89004804
       3750.1238      0.86797385
       3751.0549      0.93022639
       3751.9861      0.89716961
       3752.9172      0.94233523
       3753.8484      0.94813398
       3754.7795      0.99271259
       3755.7106       1.0494420
       3756.6418       1.1502072
       3757.5729       1.1292882
       3758.5041       1.1623139
       3759.4352       1.0775659
       3760.3663       1.1813645
       3761.2975       1.1280866
       3762.2286       1.1650611
       3763.1597       1.1634699
       3764.0909       1.1421441
       3765.0220       1.1823646
       3765.9532       1.0751756
       3766.8843       1.2071217
       3767.8154       1.0451744
       3768.7466       1.0941519
       3769.6777       1.0768323
       3770.6089       1.0982933
       3771.5400       1.1339035
       3772.4711       1.0990867
       3773.4023       1.0933437
       3774.3334       1.0894056
       3775.2645       1.1767803
       3776.1957       1.1954888
       3777.1268       1.1813300
       3778.0580       1.2263900
       3778.9891       1.2556078
       3779.9202       1.3036164
       3780.8514       1.3072877
       3781.7825       1.3300215
       3782.7137       1.3434136
       3783.6448       1.4158172
       3784.5759       1.4664203
       3785.5071       1.3695977
       3786.4382       1.4202138
       3787.3693       1.3419943
       3788.3005       1.3950850
       3789.2316       1.3889019
       3790.1628       1.2333952
       3791.0939       1.1854232
       3792.0250       1.2571414
       3792.9562       1.2089289
       3793.8873       1.2390975
       3794.8185       1.2092982
       3795.7496       1.1177836
       3796.6807       1.1311273
       3797.6119       1.0999219
       3798.5430       1.0137349
       3799.4741       1.0203949
       3800.4053       1.0655488
       3801.3364       1.0562034
       3802.2676       1.0670188
       3803.1987       1.1361458
       3804.1298       1.2346191
       3805.0610       1.2586955
       3805.9921       1.2686902
       3806.9233       1.2133132
       3807.8544       1.2832369
       3808.7855       1.3740812
       3809.7167       1.2786227
       3810.6478       1.2426803
       3811.5789       1.3413153
       3812.5101       1.2408555
       3813.4412       1.2963878
       3814.3724       1.2957375
       3815.3035       1.2933035
       3816.2346       1.3284183
       3817.1658       1.2018787
       3818.0969       1.2004558
       3819.0281       1.1748623
       3819.9592       1.2403491
       3820.8903       1.1675736
       3821.8215       1.1286241
       3822.7526       1.0737645
       3823.6837       1.1728882
       3824.6149       1.0491806
       3825.5460       1.0562702
       3826.4772       1.1418006
       3827.4083       1.0806480
       3828.3394       1.0584726
       3829.2706       1.0967870
       3830.2017      0.93878856
       3831.1329       1.0065311
       3832.0640      0.91887089
       3832.9951       1.0012289
       3833.9263      0.94367958
       3834.8574      0.90303171
       3835.7885      0.89031481
       3836.7197      0.88553344
       3837.6508      0.82437305
       3838.5820      0.85953162
       3839.5131      0.95374975
       3840.4442      0.93366586
       3841.3754      0.97695755
       3842.3065      0.92620458
       3843.2377       1.0412177
       3844.1688       1.2062300
       3845.0999       1.1070979
       3846.0311       1.2593728
       3846.9622       1.1743925
       3847.8933       1.2366704
       3848.8245       1.2404431
       3849.7556       1.2135937
       3850.6868       1.2929083
       3851.6179       1.2363408
       3852.5490       1.2487920
       3853.4802       1.2548685
       3854.4113       1.2689551
       3855.3425       1.2103739
       3856.2736       1.2944796
       3857.2047       1.2259396
       3858.1359       1.3341839
       3859.0670       1.2818552
       3859.9981       1.2841015
       3860.9293       1.1979668
       3861.8604       1.2864124
       3862.7916       1.3255514
       3863.7227       1.2499739
       3864.6538       1.2825381
       3865.5850       1.3223454
       3866.5161       1.3873143
       3867.4473       1.2776279
       3868.3784       1.2941644
       3869.3095       1.3283401
       3870.2407       1.3263985
       3871.1718       1.2530945
       3872.1029       1.2922567
       3873.0341       1.2250365
       3873.9652       1.2961832
       3874.8964       1.2057573
       3875.8275       1.2828884
       3876.7586       1.2044251
       3877.6898       1.2781565
       3878.6209       1.2429027
       3879.5521       1.1950398
       3880.4832       1.2584577
       3881.4143       1.2484481
       3882.3455       1.2470489
       3883.2766       1.1529344
       3884.2077       1.1296733
       3885.1389       1.1274702
       3886.0700       1.1340138
       3887.0012       1.1609735
       3887.9323       1.1911466
       3888.8634       1.1657559
       3889.7946       1.1966592
       3890.7257       1.1783786
       3891.6569       1.2606725
       3892.5880       1.2929387
       3893.5191       1.2171266
       3894.4503       1.3253848
       3895.3814       1.3314180
       3896.3125       1.3073910
       3897.2437       1.3265400
       3898.1748       1.3417558
       3899.1060       1.3083245
       3900.0371       1.3635219
       3900.9682       1.4785320
       3901.8994       1.4357932
       3902.8305       1.3414406
       3903.7617       1.3709193
       3904.6928       1.4419781
       3905.6239       1.5181534
       3906.5551       1.4977925
       3907.4862       1.4469733
       3908.4173       1.4377838
       3909.3485       1.4893877
       3910.2796       1.5138133
       3911.2108       1.6320919
       3912.1419       1.6046605
       3913.0730       1.5954423
       3914.0042       1.6084116
       3914.9353       1.5967426
       3915.8665       1.5275905
       3916.7976       1.5534444
       3917.7287       1.5131718
       3918.6599       1.5536038
       3919.5910       1.4739564
       3920.5221       1.4118973
       3921.4533       1.4102620
       3922.3844       1.4301696
       3923.3156       1.3495157
       3924.2467       1.2863780
       3925.1778       1.3240209
       3926.1090       1.3157538
       3927.0401       1.1346097
       3927.9713       1.0959522
       3928.9024       1.0605585
       3929.8335      0.99192994
       3930.7647      0.92368961
       3931.6958      0.91561399
       3932.6269      0.95273286
       3933.5581      0.99498023
       3934.4892      0.98265951
       3935.4204       1.0164636
       3936.3515      0.98517053
       3937.2826       1.0959611
       3938.2138       1.1576455
       3939.1449       1.2351476
       3940.0761       1.2670673
       3941.0072       1.3299617
       3941.9383       1.2941327
       3942.8695       1.2962070
       3943.8006       1.5027875
       3944.7317       1.4236223
       3945.6629       1.4303003
       3946.5940       1.4885941
       3947.5252       1.5390574
       3948.4563       1.5326696
       3949.3874       1.5991196
       3950.3186       1.5078633
       3951.2497       1.5828161
       3952.1809       1.5701136
       3953.1120       1.5510239
       3954.0431       1.5219992
       3954.9743       1.5337342
       3955.9054       1.4146660
       3956.8365       1.4905309
       3957.7677       1.4696847
       3958.6988       1.3780695
       3959.6300       1.3483549
       3960.5611       1.2912189
       3961.4922       1.1344357
       3962.4234       1.1687021
       3963.3545       1.0247480
       3964.2857      0.96203331
       3965.2168      0.95570282
       3966.1479      0.92663323
       3967.0791      0.91850302
       3968.0102      0.88186110
       3968.9413      0.90369576
       3969.8725      0.89638732
       3970.8036      0.99369341
       3971.7348       1.0377399
       3972.6659       1.2187523
       3973.5970       1.2723872
       3974.5282       1.3022339
       3975.4593       1.3637783
       3976.3905       1.4270255
       3977.3216       1.6066647
       3978.2527       1.5709465
       3979.1839       1.6281816
       3980.1150       1.5889606
       3981.0461       1.6972440
       3981.9773       1.6404426
       3982.9084       1.7631971
       3983.8396       1.7765616
       3984.7707       1.7245550
       3985.7018       1.7576336
       3986.6330       1.8451313
       3987.5641       1.7737028
       3988.4953       1.7898705
       3989.4264       1.7928311
       3990.3575       1.9230684
       3991.2887       1.9604798
       3992.2198       1.9411847
       3993.1509       1.8934149
       3994.0821       1.9902543
       3995.0132       1.8076900
       3995.9444       1.7961427
       3996.8755       1.8909902
       3997.8066       1.9754282
       3998.7378       1.9452244
       3999.6689       1.9775876
       4000.6001       1.8881419
       4001.5312       1.9042902
       4002.4623       1.9504313
       4003.3935       1.8913007
       4004.3246       1.9345882
       4005.2557       1.9521391
       4006.1869       1.9279630
       4007.1180       1.8620285
       4008.0492       1.9619181
       4008.9803       2.0748337
       4009.9114       2.0068417
       4010.8426       2.0850032
       4011.7737       2.0148784
       4012.7049       1.9733419
       4013.6360       2.0180928
       4014.5671       2.0188488
       4015.4983       2.1422838
       4016.4294       2.1023469
       4017.3605       2.0583377
       4018.2917       2.0030808
       4019.2228       2.0076154
       4020.1540       1.9747359
       4021.0851       1.9280538
       4022.0162       1.9709825
       4022.9474       2.0353044
       4023.8785       2.0379758
       4024.8097       2.0568648
       4025.7408       2.0538577
       4026.6719       2.0194349
       4027.6031       2.0009100
       4028.5342       1.8823126
       4029.4653       1.8407248
       4030.3965       1.8075456
       4031.3276       1.9314419
       4032.2588       1.9331457
       4033.1899       1.9395463
       4034.1210       2.0305746
       4035.0522       1.9940409
       4035.9833       2.1637146
       4036.9145       1.9989331
       4037.8456       1.9649060
       4038.7767       2.0022898
       4039.7079       1.9199210
       4040.6390       1.9146190
       4041.5701       1.9127742
       4042.5013       1.9923564
       4043.4324       1.8952042
       4044.3636       1.9575014
       4045.2947       2.0742596
       4046.2258       2.0236591
       4047.1570       2.0398099
       4048.0881       2.1236171
       4049.0192       2.0409081
       4049.9504       1.9716526
       4050.8815       1.9781420
       4051.8127       2.0557097
       4052.7438       1.9070597
       4053.6749       1.9652141
       4054.6061       1.9529960
       4055.5372       1.9209093
       4056.4684       1.8705512
       4057.3995       1.9180169
       4058.3306       1.8890001
       4059.2618       1.8719221
       4060.1929       1.9563238
       4061.1240       1.8405364
       4062.0552       1.8759314
       4062.9863       1.9146359
       4063.9175       1.9547683
       4064.8486       2.0177994
       4065.7797       1.9024185
       4066.7109       1.9100488
       4067.6420       1.9053233
       4068.5732       1.9523329
       4069.5043       1.8259595
       4070.4354       1.8583953
       4071.3666       1.9708014
       4072.2977       1.8645381
       4073.2288       1.9651859
       4074.1600       1.9999776
       4075.0911       1.9425365
       4076.0223       1.9460609
       4076.9534       2.0183578
       4077.8845       1.9681558
       4078.8157       2.0318955
       4079.7468       2.0291398
       4080.6780       2.0045156
       4081.6091       2.0870947
       4082.5402       2.1000524
       4083.4714       2.0691999
       4084.4025       2.0401739
       4085.3336       2.1150646
       4086.2648       2.0350953
       4087.1959       2.0127282
       4088.1271       2.0494878
       4089.0582       2.0046655
       4089.9893       1.8805908
       4090.9205       1.9168234
       4091.8516       1.7884464
       4092.7828       1.7893911
       4093.7139       1.7806011
       4094.6450       1.7103060
       4095.5762       1.7100386
       4096.5073       1.7369645
       4097.4384       1.7178576
       4098.3696       1.7655252
       4099.3007       1.9175344
       4100.2319       1.9129203
       4101.1630       1.9974186
       4102.0941       1.9342686
       4103.0253       1.8023953
       4103.9564       1.8648502
       4104.8876       1.8438384
       4105.8187       1.9524981
       4106.7498       2.0315934
       4107.6810       2.0193357
       4108.6121       2.0505444
       4109.5432       2.0591829
       4110.4744       1.9952974
       4111.4055       1.9671435
       4112.3367       2.0528975
       4113.2678       2.0900462
       4114.1989       2.1070739
       4115.1301       2.0472419
       4116.0612       1.9834368
       4116.9924       2.0699394
       4117.9235       2.1141832
       4118.8546       2.0476813
       4119.7858       2.0147649
       4120.7169       2.0703359
       4121.6480       1.9854076
       4122.5792       1.9129488
       4123.5103       1.9430429
       4124.4415       1.9960219
       4125.3726       2.0006465
       4126.3037       1.9220799
       4127.2349       2.0372711
       4128.1660       1.9796138
       4129.0972       1.9454954
       4130.0283       2.1067910
       4130.9594       1.9865283
       4131.8906       2.0808976
       4132.8217       2.2156631
       4133.7528       2.1782440
       4134.6840       2.0661992
       4135.6151       2.0082485
       4136.5463       2.0546953
       4137.4774       2.0065715
       4138.4085       2.0806655
       4139.3397       2.0460007
       4140.2708       1.9493548
       4141.2020       2.0701591
       4142.1331       2.0839200
       4143.0642       2.0027496
       4143.9954       2.0083167
       4144.9265       1.9641618
       4145.8576       1.9803236
       4146.7888       1.9218915
       4147.7199       1.9452010
       4148.6511       2.0393786
       4149.5822       1.9830106
       4150.5133       2.0265322
       4151.4445       2.0621563
       4152.3756       2.0382401
       4153.3068       2.1974398
       4154.2379       2.2015481
       4155.1690       2.1701917
       4156.1002       2.2559658
       4157.0313       2.0994583
       4157.9624       2.2194077
       4158.8936       2.2162730
       4159.8247       2.1267903
       4160.7559       2.0610430
       4161.6870       2.0990172
       4162.6181       2.1379716
       4163.5493       2.0166909
       4164.4804       1.9953505
       4165.4116       2.0047784
       4166.3427       1.9299025
       4167.2738       2.0553993
       4168.2050       2.0392039
       4169.1361       1.9089062
       4170.0672       2.0203530
       4170.9984       2.0877785
       4171.9295       2.0615529
       4172.8607       2.0623388
       4173.7918       2.0768029
       4174.7229       2.0316551
       4175.6541       2.1264437
       4176.5852       2.0965371
       4177.5164       2.0800282
       4178.4475       2.0640545
       4179.3786       2.1014419
       4180.3098       2.0822705
       4181.2409       2.0833203
       4182.1720       2.1867460
       4183.1032       2.1839045
       4184.0343       2.2386878
       4184.9655       2.1748720
       4185.8966       2.1272506
       4186.8277       2.1230480
       4187.7589       2.0354093
       4188.6900       2.0328314
       4189.6212       1.9610295
       4190.5523       2.0581991
       4191.4834       2.0924286
       4192.4146       2.0756661
       4193.3457       2.0348535
       4194.2768       2.0021969
       4195.2080       2.0966822
       4196.1391       2.1377765
       4197.0703       2.1191920
       4198.0014       2.1631962
       4198.9325       2.1264388
       4199.8637       2.2400572
       4200.7948       2.0760092
       4201.7260       2.2129534
       4202.6571       2.2101224
       4203.5882       2.1893663
       4204.5194       2.2073584
       4205.4505       2.2535998
       4206.3816       2.1916304
       4207.3128       2.2156968
       4208.2439       2.1990909
       4209.1751       2.1589953
       4210.1062       2.2253220
       4211.0373       2.2832882
       4211.9685       2.2486142
       4212.8996       2.1584293
       4213.8308       2.1360566
       4214.7619       2.0521736
       4215.6930       2.0544311
       4216.6242       1.9299617
       4217.5553       1.9156790
       4218.4864       1.9654672
       4219.4176       2.0569676
       4220.3487       2.1146224
       4221.2799       1.9484960
       4222.2110       2.1544565
       4223.1421       2.2370446
       4224.0733       2.1930717
       4225.0044       2.2078631
       4225.9356       2.1684064
       4226.8667       2.1917439
       4227.7978       2.1312102
       4228.7290       2.1273400
       4229.6601       2.2046263
       4230.5912       2.2106860
       4231.5224       2.1797374
       4232.4535       2.2901513
       4233.3847       2.2947498
       4234.3158       2.2974121
       4235.2469       2.2706317
       4236.1781       2.3430469
       4237.1092       2.2369211
       4238.0404       2.1604172
       4238.9715       2.1382671
       4239.9026       2.1442374
       4240.8338       2.1024055
       4241.7649       2.2235369
       4242.6960       2.1804538
       4243.6272       2.0879898
       4244.5583       2.1562347
       4245.4895       2.1827957
       4246.4206       2.1473683
       4247.3517       2.1396658
       4248.2829       2.1818499
       4249.2140       2.1573778
       4250.1452       2.2656798
       4251.0763       2.2039878
       4252.0074       2.2676828
       4252.9386       2.2319191
       4253.8697       2.3063939
       4254.8008       2.2893218
       4255.7320       2.3025077
       4256.6631       2.2731244
       4257.5943       2.2077650
       4258.5254       2.0852893
       4259.4565       2.1912196
       4260.3877       2.1137587
       4261.3188       2.0749364
       4262.2500       1.9787508
       4263.1811       1.9513921
       4264.1122       2.1019171
       4265.0434       1.9889051
       4265.9745       1.9874257
       4266.9056       2.0857397
       4267.8368       2.2684196
       4268.7679       2.2554438
       4269.6991       2.2254589
       4270.6302       2.2306028
       4271.5613       2.1923743
       4272.4925       2.1762829
       4273.4236       2.2285399
       4274.3548       2.1596133
       4275.2859       2.1077917
       4276.2170       2.0965112
       4277.1482       2.0586921
       4278.0793       2.0804493
       4279.0104       2.0089119
       4279.9416       2.0107311
       4280.8727       1.9549448
       4281.8039       2.0605039
       4282.7350       2.0658568
       4283.6661       2.0289655
       4284.5973       1.9615824
       4285.5284       1.9656857
       4286.4596       1.8625547
       4287.3907       1.9599796
       4288.3218       1.8111321
       4289.2530       1.7925264
       4290.1841       1.7949644
       4291.1152       1.7712139
       4292.0464       1.7199485
       4292.9775       1.7647541
       4293.9087       1.6885018
       4294.8398       1.7857508
       4295.7709       1.7294462
       4296.7021       1.7621379
       4297.6332       1.7932582
       4298.5644       1.8126973
       4299.4955       1.7794065
       4300.4266       1.9335746
       4301.3578       1.9753699
       4302.2889       2.1720832
       4303.2200       2.2566196
       4304.1512       2.2279305
       4305.0823       2.3578488
       4306.0135       2.4062732
       4306.9446       2.4171462
       4307.8757       2.4243516
       4308.8069       2.2878215
       4309.7380       2.3054184
       4310.6692       2.1867341
       4311.6003       2.1358794
       4312.5314       1.9840078
       4313.4626       2.1767365
       4314.3937       2.1976903
       4315.3248       2.2236299
       4316.2560       2.2991839
       4317.1871       2.2392932
       4318.1183       2.3169745
       4319.0494       2.3401949
       4319.9805       2.4666412
       4320.9117       2.4033541
       4321.8428       2.3394036
       4322.7740       2.2942038
       4323.7051       2.2736462
       4324.6362       2.3174911
       4325.5674       2.2340019
       4326.4985       2.2592244
       4327.4296       2.2318756
       4328.3608       2.1863889
       4329.2919       2.2307925
       4330.2231       2.2948289
       4331.1542       2.3061253
       4332.0853       2.3391455
       4333.0165       2.3377709
       4333.9476       2.3786843
       4334.8788       2.2627316
       4335.8099       2.2044782
       4336.7410       2.3377030
       4337.6722       2.1890943
       4338.6033       2.2169818
       4339.5344       2.2521952
       4340.4656       2.2810648
       4341.3967       2.3007155
       4342.3279       2.3434690
       4343.2590       2.2868804
       4344.1901       2.3652259
       4345.1213       2.2659059
       4346.0524       2.4486188
       4346.9836       2.5996508
       4347.9147       2.5073964
       4348.8458       2.4565413
       4349.7770       2.4990460
       4350.7081       2.5653143
       4351.6392       2.6330816
       4352.5704       2.4968679
       4353.5015       2.5469010
       4354.4327       2.5953767
       4355.3638       2.5140015
       4356.2949       2.5243964
       4357.2261       2.4078174
       4358.1572       2.3421617
       4359.0884       2.4015968
       4360.0195       2.3421589
       4360.9506       2.3980334
       4361.8818       2.3663951
       4362.8129       2.4161926
       4363.7440       2.3892152
       4364.6752       2.3157804
       4365.6063       2.2380507
       4366.5375       2.2437798
       4367.4686       2.2589037
       4368.3997       2.1591885
       4369.3309       2.2018505
       4370.2620       2.1549544
       4371.1932       2.2138347
       4372.1243       2.1466799
       4373.0554       2.1804905
       4373.9866       2.2396840
       4374.9177       2.2233478
       4375.8488       2.2468371
       4376.7800       2.3315258
       4377.7111       2.4183888
       4378.6423       2.4167486
       4379.5734       2.4625931
       4380.5045       2.4159943
       4381.4357       2.4595579
       4382.3668       2.4097897
       4383.2980       2.4868615
       4384.2291       2.4465448
       4385.1602       2.4542081
       4386.0914       2.4498927
       4387.0225       2.4205707
       4387.9536       2.4185420
       4388.8848       2.3279559
       4389.8159       2.2716163
       4390.7471       2.3387434
       4391.6782       2.3290235
       4392.6093       2.2658092
       4393.5405       2.4277976
       4394.4716       2.4677822
       4395.4028       2.4576954
       4396.3339       2.4749132
       4397.2650       2.5406163
       4398.1962       2.6012892
       4399.1273       2.5444574
       4400.0584       2.3367403
       4400.9896       2.4311131
       4401.9207       2.4532333
       4402.8519       2.5679356
       4403.7830       2.5360973
       4404.7141       2.4272230
       4405.6453       2.5259193
       4406.5764       2.4818849
       4407.5076       2.5922720
       4408.4387       2.5260004
       4409.3698       2.5215474
       4410.3010       2.5719234
       4411.2321       2.5221368
       4412.1632       2.5663270
       4413.0944       2.5663447
       4414.0255       2.5849246
       4414.9567       2.5837776
       4415.8878       2.5795993
       4416.8189       2.6415786
       4417.7501       2.5737690
       4418.6812       2.4728943
       4419.6124       2.4344520
       4420.5435       2.5118166
       4421.4746       2.5233640
       4422.4058       2.5680947
       4423.3369       2.6670592
       4424.2680       2.6401568
       4425.1992       2.5816498
       4426.1303       2.5477902
       4427.0615       2.7386608
       4427.9926       2.6277583
       4428.9237       2.5880318
       4429.8549       2.6498068
       4430.7860       2.6592170
       4431.7172       2.6168385
       4432.6483       2.6555045
       4433.5794       2.6787613
       4434.5106       2.7375763
       4435.4417       2.7523354
       4436.3728       2.7169334
       4437.3040       2.5785856
       4438.2351       2.5464405
       4439.1663       2.4456794
       4440.0974       2.4816029
       4441.0285       2.4849982
       4441.9597       2.5526949
       4442.8908       2.6251058
       4443.8220       2.4055302
       4444.7531       2.4775046
       4445.6842       2.5220909
       4446.6154       2.5423986
       4447.5465       2.6454103
       4448.4776       2.5422294
       4449.4088       2.6158096
       4450.3399       2.6287877
       4451.2711       2.6646542
       4452.2022       2.5405351
       4453.1333       2.6616219
       4454.0645       2.5992309
       4454.9956       2.7290380
       4455.9268       2.7924736
       4456.8579       2.8664132
       4457.7890       2.7478647
       4458.7202       2.8116680
       4459.6513       2.7197987
       4460.5824       2.7612406
       4461.5136       2.7039171
       4462.4447       2.7022780
       4463.3759       2.6504726
       4464.3070       2.7075290
       4465.2381       2.6497611
       4466.1693       2.7219224
       4467.1004       2.7347047
       4468.0316       2.7742429
       4468.9627       2.8078583
       4469.8938       2.7656513
       4470.8250       2.8286197
       4471.7561       2.6890550
       4472.6872       2.6927400
       4473.6184       2.6458028
       4474.5495       2.7266008
       4475.4807       2.6810240
       4476.4118       2.7655494
       4477.3429       2.7494070
       4478.2741       2.7112170
       4479.2052       2.7434289
       4480.1364       2.8012507
       4481.0675       2.8408641
       4481.9986       2.8832740
       4482.9298       2.8241371
       4483.8609       2.7993861
       4484.7920       2.8449721
       4485.7232       2.9077291
       4486.6543       2.8951794
       4487.5855       2.9827260
       4488.5166       2.9022625
       4489.4477       3.1239628
       4490.3789       2.9414195
       4491.3100       2.9754968
       4492.2412       2.9659874
       4493.1723       2.9693579
       4494.1034       2.9767544
       4495.0346       2.8980852
       4495.9657       2.7828156
       4496.8968       2.8763098
       4497.8280       2.8003048
       4498.7591       2.8162316
       4499.6903       2.8816418
       4500.6214       2.8170744
       4501.5525       2.7693975
       4502.4837       2.7963734
       4503.4148       2.8546211
       4504.3460       2.8091732
       4505.2771       2.8008326
       4506.2082       2.6893115
       4507.1394       2.6649016
       4508.0705       2.6115482
       4509.0016       2.5672309
       4509.9328       2.5402804
       4510.8639       2.6061753
       4511.7951       2.5394934
       4512.7262       2.5167255
       4513.6573       2.5359771
       4514.5885       2.5274340
       4515.5196       2.6540168
       4516.4508       2.7603656
       4517.3819       2.6835173
       4518.3130       2.6799007
       4519.2442       2.7691127
       4520.1753       2.6906215
       4521.1064       2.8296037
       4522.0376       2.7860681
       4522.9687       2.7701625
       4523.8999       2.7713567
       4524.8310       2.7712594
       4525.7621       2.6562329
       4526.6933       2.6466255
       4527.6244       2.7617650
       4528.5556       2.6774694
       4529.4867       2.6837427
       4530.4178       2.7094255
       4531.3490       2.6621272
       4532.2801       2.6733078
       4533.2112       2.6944993
       4534.1424       2.7454176
       4535.0735       2.7734734
       4536.0047       2.8424038
       4536.9358       2.7311113
       4537.8669       2.8301450
       4538.7981       2.8747830
       4539.7292       2.8031442
       4540.6604       2.8931909
       4541.5915       2.7858757
       4542.5226       2.8494418
       4543.4538       2.7139517
       4544.3849       2.7425633
       4545.3160       2.7025406
       4546.2472       2.8678269
       4547.1783       2.9909626
       4548.1095       2.8401314
       4549.0406       2.8819496
       4549.9717       2.8245936
       4550.9029       2.7719759
       4551.8340       2.7454635
       4552.7652       2.7938196
       4553.6963       2.8510996
       4554.6274       2.7268979
       4555.5586       2.8745272
       4556.4897       2.7954671
       4557.4208       2.7215786
       4558.3520       2.7318209
       4559.2831       2.7722930
       4560.2143       2.8672530
       4561.1454       2.7567572
       4562.0765       2.6055312
       4563.0077       2.7148375
       4563.9388       2.6052527
       4564.8700       2.6730745
       4565.8011       2.8553166
       4566.7322       2.7821888
       4567.6634       2.8412012
       4568.5945       2.8416950
       4569.5256       2.8380795
       4570.4568       2.7254795
       4571.3879       2.8035387
       4572.3191       2.7485900
       4573.2502       2.6382883
       4574.1813       2.7365038
       4575.1125       2.7848978
       4576.0436       2.7416704
       4576.9748       2.7584228
       4577.9059       2.7902830
       4578.8370       2.6740292
       4579.7682       2.7650171
       4580.6993       2.7730200
       4581.6304       2.8023695
       4582.5616       2.7860849
       4583.4927       2.8802906
       4584.4239       2.9056858
       4585.3550       2.9698749
       4586.2861       2.8807920
       4587.2173       2.9499872
       4588.1484       2.8554545
       4589.0796       2.9537059
       4590.0107       2.8733533
       4590.9418       2.9169170
       4591.8730       2.8914432
       4592.8041       2.9653453
       4593.7352       2.8677522
       4594.6664       2.8526610
       4595.5975       2.9654891
       4596.5287       2.8191141
       4597.4598       2.9812190
       4598.3909       2.9876622
       4599.3221       2.9754618
       4600.2532       2.9413030
       4601.1844       2.9918819
       4602.1155       3.0036917
       4603.0466       2.8919743
       4603.9778       2.9379486
       4604.9089       2.8982396
       4605.8400       2.9588643
       4606.7712       2.9829770
       4607.7023       2.9274034
       4608.6335       2.9722389
       4609.5646       2.8864212
       4610.4957       2.8781357
       4611.4269       2.8950214
       4612.3580       2.8434288
       4613.2892       2.7388463
       4614.2203       2.9233358
       4615.1514       2.8509409
       4616.0826       2.7142810
       4617.0137       2.7819282
       4617.9448       2.7944798
       4618.8760       2.7996509
       4619.8071       2.6940579
       4620.7383       2.7135261
       4621.6694       2.7488924
       4622.6005       2.6333555
       4623.5317       2.6078974
       4624.4628       2.6149979
       4625.3940       2.6759747
       4626.3251       2.7081507
       4627.2562       2.7520230
       4628.1874       2.9039355
       4629.1185       2.7419841
       4630.0496       2.8920955
       4630.9808       2.8774465
       4631.9119       2.8817057
       4632.8431       2.8261144
       4633.7742       2.7697890
       4634.7053       2.9258282
       4635.6365       2.9056840
       4636.5676       2.8846835
       4637.4988       2.7696800
       4638.4299       2.8317266
       4639.3610       2.9351206
       4640.2922       2.8089518
       4641.2233       2.7150427
       4642.1544       2.7495910
       4643.0856       2.6847477
       4644.0167       2.5946628
       4644.9479       2.6625288
       4645.8790       2.6981903
       4646.8101       2.5900732
       4647.7413       2.6461457
       4648.6724       2.8123053
       4649.6036       2.7990920
       4650.5347       2.7708779
       4651.4658       2.7739087
       4652.3970       2.7940758
       4653.3281       2.8307795
       4654.2592       2.7949864
       4655.1904       2.8001510
       4656.1215       2.7948578
       4657.0527       2.7767862
       4657.9838       2.7161089
       4658.9149       2.8636659
       4659.8461       2.9399830
       4660.7772       2.9111877
       4661.7084       2.6872367
       4662.6395       2.7528885
       4663.5706       2.8002462
       4664.5018       2.8883807
       4665.4329       2.8724204
       4666.3640       2.5985858
       4667.2952       2.6965759
       4668.2263       2.7487542
       4669.1575       2.7327586
       4670.0886       2.8791130
       4671.0197       2.7288676
       4671.9509       2.7983782
       4672.8820       2.7195155
       4673.8132       2.7073679
       4674.7443       2.7535676
       4675.6754       2.6588391
       4676.6066       2.5507859
       4677.5377       2.6179169
       4678.4688       2.6047617
       4679.4000       2.6410588
       4680.3311       2.6505120
       4681.2623       2.6734704
       4682.1934       2.7561404
       4683.1245       2.6749811
       4684.0557       2.6495334
       4684.9868       2.6908475
       4685.9180       2.6793169
       4686.8491       2.8145744
       4687.7802       2.6730590
       4688.7114       2.7330090
       4689.6425       2.7126988
       4690.5736       2.7704779
       4691.5048       2.7192237
       4692.4359       2.6642154
       4693.3671       2.7697043
       4694.2982       2.8304930
       4695.2293       2.8736608
       4696.1605       2.8891996
       4697.0916       2.8024914
       4698.0228       2.7891108
       4698.9539       2.6460065
       4699.8850       2.7179170
       4700.8162       2.7165048
       4701.7473       2.7630684
       4702.6784       2.6858173
       4703.6096       2.6061488
       4704.5407       2.6777311
       4705.4719       2.6128875
       4706.4030       2.6442910
       4707.3341       2.6692308
       4708.2653       2.6129868
       4709.1964       2.5733293
       4710.1276       2.7394483
       4711.0587       2.5775775
       4711.9898       2.6656711
       4712.9210       2.6496844
       4713.8521       2.6708763
       4714.7832       2.6723404
       4715.7144       2.6075316
       4716.6455       2.7766270
       4717.5767       2.6273081
       5679.0744       8.9836503
       5680.0890       9.7504888
       5681.1035       9.4088099
       5682.1181       8.2844796
       5683.1327       7.8271966
       5684.1472       7.5378958
       5685.1618       7.3233776
       5686.1764       7.1778238
       5687.1910       7.1260824
       5688.2055       7.2419434
       5689.2201       7.1273713
       5690.2347       7.2180144
       5691.2492       7.7090616
       5692.2638       7.9566624
       5693.2784       7.9781528
       5694.2929       7.8364497
       5695.3075       7.8079977
       5696.3221       7.8246719
       5697.3366       7.6587802
       5698.3512       7.6841295
       5699.3658       7.8272803
       5700.3803       7.7092550
       5701.3949       7.7150233
       5702.4095       7.9396945
       5703.4241       8.0533549
       5704.4386       8.0100642
       5705.4532       7.9032135
       5706.4678       7.7680357
       5707.4823       7.6450444
       5708.4969       7.8035109
       5709.5115       7.9349283
       5710.5260       7.8453486
       5711.5406       7.5520205
       5712.5552       7.6844459
       5713.5697       7.8981035
       5714.5843       8.0284308
       5715.5989       8.1739593
       5716.6134       8.3389607
       5717.6280       8.2917319
       5718.6426       8.1593081
       5719.6572       8.0799032
       5720.6717       8.0473897
       5721.6863       8.2488534
       5722.7009       8.1789393
       5723.7154       8.0530521
       5724.7300       8.2173473
       5725.7446       8.2192386
       5726.7591       8.2279505
       5727.7737       8.2728800
       5728.7883       8.2566917
       5729.8028       8.4953018
       5730.8174       8.3934165
       5731.8320       8.3577342
       5732.8465       8.3135169
       5733.8611       8.2594865
       5734.8757       8.4241738
       5735.8903       8.4341869
       5736.9048       8.4434029
       5737.9194       8.2831772
       5738.9340       8.3724205
       5739.9485       8.3916925
       5740.9631       8.2114187
       5741.9777       8.3244541
       5742.9922       8.2395410
       5744.0068       8.0004402
       5745.0214       7.9117112
       5746.0359       8.1330101
       5747.0505       8.0702984
       5748.0651       7.8776038
       5749.0797       7.7603673
       5750.0942       7.9347903
       5751.1088       7.8981850
       5752.1234       7.9081795
       5753.1379       7.7766240
       5754.1525       7.7753840
       5755.1671       8.1128208
       5756.1816       8.2926542
       5757.1962       8.0738402
       5758.2108       8.0892012
       5759.2253       8.2173268
       5760.2399       8.1527697
       5761.2545       8.2439063
       5762.2690       8.2325146
       5763.2836       8.2816350
       5764.2982       8.2164424
       5765.3128       8.2567415
       5766.3273       8.2683432
       5767.3419       8.3153379
       5768.3565       8.3485563
       5769.3710       8.4655286
       5770.3856       8.3716908
       5771.4002       8.2330297
       5772.4147       8.2457768
       5773.4293       8.2281445
       5774.4439       8.3939002
       5775.4584       8.3559081
       5776.4730       8.3458041
       5777.4876       8.2603549
       5778.5021       8.2417076
       5779.5167       8.3184875
       5780.5313       8.3952300
       5781.5459       8.2777068
       5782.5604       8.3467853
       5783.5750       8.4207581
       5784.5896       8.3481025
       5785.6041       8.3353158
       5786.6187       8.4266834
       5787.6333       8.3741443
       5788.6478       8.4007250
       5789.6624       8.3082502
       5790.6770       8.4300667
       5791.6915       8.5043731
       5792.7061       8.5418298
       5793.7207       8.5550201
       5794.7352       8.4824250
       5795.7498       8.5023828
       5796.7644       8.4636195
       5797.7790       8.5900978
       5798.7935       8.5800205
       5799.8081       8.5787522
       5800.8227       8.5332419
       5801.8372       8.3845467
       5802.8518       8.4159266
       5803.8664       8.4186196
       5804.8809       8.4771443
       5805.8955       8.4980153
       5806.9101       8.4641127
       5807.9246       8.3503851
       5808.9392       8.3911197
       5809.9538       8.4562230
       5810.9684       8.4491949
       5811.9829       8.3311049
       5812.9975       8.4010766
       5814.0121       8.5828069
       5815.0266       8.5138287
       5816.0412       8.3361180
       5817.0558       8.3335008
       5818.0703       8.4035586
       5819.0849       8.3155066
       5820.0995       8.2816591
       5821.1140       8.3023911
       5822.1286       8.1293568
       5823.1432       8.1791147
       5824.1577       8.0399807
       5825.1723       7.8957806
       5826.1869       7.7861966
       5827.2015       7.6664438
       5828.2160       7.7883720
       5829.2306       7.9792963
       5830.2452       7.9727073
       5831.2597       8.1356153
       5832.2743       8.1585386
       5833.2889       8.4292248
       5834.3034       8.4124618
       5835.3180       8.3013988
       5836.3326       8.4364985
       5837.3471       8.3104860
       5838.3617       8.4226573
       5839.3763       8.4816499
       5840.3908       8.1562599
       5841.4054       8.2695692
       5842.4200       8.0905008
       5843.4346       8.3830354
       5844.4491       8.3062245
       5845.4637       8.4121565
       5846.4783       8.4341262
       5847.4928       8.2365826
       5848.5074       8.3011298
       5849.5220       8.1996584
       5850.5365       8.2124221
       5851.5511       8.1582515
       5852.5657       8.0871512
       5853.5802       7.9500439
       5854.5948       7.6851523
       5855.6094       7.5748499
       5856.6240       7.1013054
       5857.6385       6.9203338
       5858.6531       6.7456048
       5859.6677       6.7945630
       5860.6822       6.4631541
       5861.6968       6.4153612
       5862.7114       6.2671415
       5863.7259       5.9640992
       5864.7405       5.7350561
       5865.7551       5.5044447
       5866.7696       5.5748043
       5867.7842       5.7547246
       5868.7988       5.7070997
       5869.8133       6.1256812
       5870.8279       6.3020937
       5871.8425       6.3397567
       5872.8571       6.7088725
       5873.8716       7.0431114
       5874.8862       7.3227890
       5875.9008       7.4753480
       5876.9153       7.6479667
       5877.9299       7.7233683
       5878.9445       7.5165107
       5879.9590       7.4500389
       5880.9736       7.3984340
       5881.9882       7.4287287
       5883.0027       7.4339113
       5884.0173       7.4419346
       5885.0319       7.3845034
       5886.0464       7.4356470
       5887.0610       7.5222344
       5888.0756       7.6163899
       5889.0902       7.6139980
       5890.1047       7.6802148
       5891.1193       7.5411895
       5892.1339       7.5561986
       5893.1484       7.7073737
       5894.1630       7.8085313
       5895.1776       7.8613078
       5896.1921       7.9535586
       5897.2067       7.9261554
       5898.2213       7.8299369
       5899.2358       7.6747647
       5900.2504       7.6160159
       5901.2650       7.6749069
       5902.2795       7.7904751
       5903.2941       7.7611151
       5904.3087       7.7673280
       5905.3233       7.9073500
       5906.3378       7.9569511
       5907.3524       7.9875140
       5908.3670       7.7540356
       5909.3815       7.4372537
       5910.3961       7.4602453
       5911.4107       7.6591246
       5912.4252       7.8948480
       5913.4398       8.0624734
       5914.4544       8.2535555
       5915.4689       8.4644603
       5916.4835       8.5580563
       5917.4981       8.4629223
       5918.5127       8.6416699
       5919.5272       8.5948476
       5920.5418       8.4502967
       5921.5564       8.2923277
       5922.5709       8.3637301
       5923.5855       8.4419666
       5924.6001       8.4729012
       5925.6146       8.3261194
       5926.6292       8.2918905
       5927.6438       8.3297642
       5928.6583       8.3713015
       5929.6729       8.3917673
       5930.6875       8.4525697
       5931.7020       8.3465001
       5932.7166       8.1710552
       5933.7312       8.0237642
       5934.7458       8.4357021
       5935.7603       8.3456222
       5936.7749       8.5276604
       5937.7895       8.7735526
       5938.8040       8.8959637
       5939.8186       8.9131654
       5940.8332       8.7506191
       5941.8477       8.8352651
       5942.8623       8.8627866
       5943.8769       8.8441854
       5944.8914       8.7403568
       5945.9060       8.7056954
       5946.9206       8.5656043
       5947.9351       8.5731556
       5948.9497       8.6224722
       5949.9643       8.4669741
       5950.9789       8.4865908
       5951.9934       8.4291900
       5953.0080       8.4373605
       5954.0226       8.3534103
       5955.0371       8.4760805
       5956.0517       8.4958818
       5957.0663       8.5470769
       5958.0808       8.4703857
       5959.0954       8.2852002
       5960.1100       8.3460815
       5961.1245       8.5376653
       5962.1391       8.6359022
       5963.1537       8.5713962
       5964.1682       8.7518819
       5965.1828       8.9274333
       5966.1974       8.8525910
       5967.2120       8.8073646
       5968.2265       8.7480666
       5969.2411       8.6327048
       5970.2557       8.5561299
       5971.2702       8.6530163
       5972.2848       8.6499270
       5973.2994       8.5030178
       5974.3139       8.3447728
       5975.3285       8.4087001
       5976.3431       8.5322997
       5977.3576       8.5273712
       5978.3722       8.4067955
       5979.3868       8.4181344
       5980.4014       8.3458962
       5981.4159       8.5003628
       5982.4305       8.4736990
       5983.4451       8.5889236
       5984.4596       8.3702915
       5985.4742       8.3979706
       5986.4888       8.3699908
       5987.5033       8.5108048
       5988.5179       8.4520794
       5989.5325       8.3394940
       5990.5470       8.5433405
       5991.5616       8.5218623
       5992.5762       8.6488153
       5993.5907       8.6043967
       5994.6053       8.5547938
       5995.6199       8.5419591
       5996.6345       8.5488783
       5997.6490       8.5740180
       5998.6636       8.5333844
       5999.6782       8.5825664
       6000.6927       8.7139875
       6001.7073       8.6756315
       6002.7219       8.8240453
       6003.7364       8.8989577
       6004.7510       8.7853732
       6005.7656       8.9523050
       6006.7801       8.8990621
       6007.7947       8.8857779
       6008.8093       8.9130070
       6009.8238       8.8707591
       6010.8384       9.1106493
       6011.8530       9.0031443
       6012.8676       9.0679903
       6013.8821       8.9742384
       6014.8967       8.8335936
       6015.9113       8.9489503
       6016.9258       8.9528772
       6017.9404       8.8552222
       6018.9550       8.9474279
       6019.9695       9.1214274
       6020.9841       9.0811081
       6021.9987       9.1157462
       6023.0132       9.1146218
       6024.0278       9.0400900
       6025.0424       9.2394432
       6026.0569       9.1921886
       6027.0715       8.9800700
       6028.0861       9.0013156
       6029.1007       8.9648821
       6030.1152       9.0105958
       6031.1298       8.8866704
       6032.1444       8.9995478
       6033.1589       8.9252734
       6034.1735       8.8626308
       6035.1881       8.7096802
       6036.2026       8.8710002
       6037.2172       9.0000522
       6038.2318       8.9756674
       6039.2463       8.9472049
       6040.2609       9.0095727
       6041.2755       8.9799433
       6042.2901       9.0491259
       6043.3046       9.0731168
       6044.3192       9.0168919
       6045.3338       9.1785654
       6046.3483       9.1955835
       6047.3629       9.1673597
       6048.3775       9.1367671
       6049.3920       9.1626602
       6050.4066       9.0571989
       6051.4212       8.9630278
       6052.4357       8.9892280
       6053.4503       8.9269528
       6054.4649       9.0668460
       6055.4794       9.0138906
       6056.4940       8.9349473
       6057.5086       8.9204665
       6058.5232       8.8927870
       6059.5377       8.8330908
       6060.5523       9.0250616
       6061.5669       9.0522649
       6062.5814       8.9363728
       6063.5960       8.8361336
       6064.6106       8.8561496
       6065.6251       8.8063160
       6066.6397       8.6050507
       6067.6543       8.8442780
       6068.6688       8.9564866
       6069.6834       8.7356940
       6070.6980       8.7793037
       6071.7125       8.8408805
       6072.7271       8.8417302
       6073.7417       8.8121517
       6074.7563       8.7384108
       6075.7708       8.8499386
       6076.7854       8.9592525
       6077.8000       8.9225550
       6078.8145       8.9797918
       6079.8291       8.8787692
       6080.8437       8.9422807
       6081.8582       8.7642572
       6082.8728       8.9551113
       6083.8874       8.9596362
       6084.9019       8.9084716
       6085.9165       8.8888028
       6086.9311       9.0071909
       6087.9457       9.1501401
       6088.9602       9.0542908
       6089.9748       8.9940748
       6090.9894       8.8750250
       6092.0039       8.9879680
       6093.0185       8.9603942
       6094.0331       8.9491075
       6095.0476       9.0286028
       6096.0622       8.9223132
       6097.0768       8.6733549
       6098.0913       8.7811513
       6099.1059       8.8965365
       6100.1205       8.7869745
       6101.1350       8.8210708
       6102.1496       8.7120991
       6103.1642       8.8042462
       6104.1788       9.0202654
       6105.1933       9.0408034
       6106.2079       8.8392184
       6107.2225       8.7387016
       6108.2370       8.7016438
       6109.2516       8.7465940
       6110.2662       8.8989245
       6111.2807       8.8325463
       6112.2953       8.8583385
       6113.3099       8.7250506
       6114.3244       8.7431077
       6115.3390       8.6620460
       6116.3536       8.6606281
       6117.3681       8.5841507
       6118.3827       8.5027095
       6119.3973       8.3768269
       6120.4119       8.3433649
       6121.4264       8.4662047
       6122.4410       8.5631097
       6123.4556       8.6381978
       6124.4701       8.6453976
       6125.4847       8.6265777
       6126.4993       8.8692273
       6127.5138       8.6311735
       6128.5284       8.7968689
       6129.5430       8.6033955
       6130.5575       8.7099952
       6131.5721       8.6397806
       6132.5867       8.6416537
       6133.6012       8.6873274
       6134.6158       8.4992657
       6135.6304       8.3458827
       6136.6450       8.3163869
       6137.6595       8.1694908
       6138.6741       8.1402272
       6139.6887       8.1304498
       6140.7032       7.9931820
       6141.7178       7.9797402
       6142.7324       7.8963305
       6143.7469       7.7875224
       6144.7615       7.9037825
       6145.7761       8.1139823
       6146.7906       7.9819248
       6147.8052       8.1202169
       6148.8198       8.0981026
       6149.8344       8.1887423
       6150.8489       8.3124913
       6151.8635       8.3518752
       6152.8781       8.3580086
       6153.8926       8.4111561
       6154.9072       8.3289402
       6155.9218       8.5066031
       6156.9363       8.5733332
       6157.9509       8.4937328
       6158.9655       8.3357285
       6159.9800       8.6144818
       6160.9946       8.8009888
       6162.0092       8.5643902
       6163.0237       8.5360563
       6164.0383       8.6265303
       6165.0529       8.5841253
       6166.0675       8.6734513
       6167.0820       8.5773562
       6168.0966       8.3978827
       6169.1112       8.4372904
       6170.1257       8.3143507
       6171.1403       8.4749710
       6172.1549       8.5428528
       6173.1694       8.7558100
       6174.1840       8.5745701
       6175.1986       8.5290217
       6176.2131       8.6233607
       6177.2277       8.7176324
       6178.2423       8.6342698
       6179.2568       8.7666648
       6180.2714       8.6559314
       6181.2860       8.8383787
       6182.3006       8.7728570
       6183.3151       8.7505379
       6184.3297       8.6570559
       6185.3443       8.6477420
       6186.3588       8.3740363
       6187.3734       8.2371904
       6188.3880       8.0292732
       6189.4025       7.8537998
       6190.4171       7.9050906
       6191.4317       7.8156341
       6192.4462       8.0456865
       6193.4608       8.0941153
       6194.4754       8.3039989
       6195.4899       8.5432237
       6196.5045       8.5540156
       6197.5191       8.7313976
       6198.5337       8.7789792
       6199.5482       8.8239813
       6200.5628       8.7054297
       6201.5774       8.5999848
       6202.5919       8.5279502
       6203.6065       8.3867715
       6204.6211       8.3811888
       6205.6356       8.5117711
       6206.6502       8.4722339
       6207.6648       8.6513171
       6208.6793       8.5705381
       6209.6939       8.3559527
       6210.7085       8.3300140
       6211.7231       8.2987031
       6212.7376       8.3451286
       6213.7522       8.1723518
       6214.7668       8.4214021
       6215.7813       8.5152409
       6216.7959       8.5027123
       6217.8105       8.3740407
       6218.8250       8.1753533
       6219.8396       7.5762858
       6220.8542       7.5844992
       6221.8687       7.9219549
       6222.8833       8.0307038
       6223.8979       8.2739097
       6224.9124       8.5307233
       6225.9270       8.9082482
       6226.9416       9.0853036
       6227.9562       8.8347709
       6228.9707       8.6327288
       6229.9853       8.4668662
       6230.9999       8.5993789
       6232.0144       8.5914775
       6233.0290       8.6083199
       6234.0436       8.6472719
       6235.0581       8.4719256
       6236.0727       8.2864213
       6237.0873       8.0433810
       6238.1018       8.1554278
       6239.1164       8.0640720
       6240.1310       8.3735722
       6241.1455       8.4688699
       6242.1601       8.5104073
       6243.1747       8.5107237
       6244.1893       8.5095701
       6245.2038       8.3746885
       6246.2184       8.5888951
       6247.2330       8.6345202
       6248.2475       8.7434513
       6249.2621       8.9194055
       6250.2767       8.9251569
       6251.2912       8.9683915
       6252.3058       8.8519390
       6253.3204       8.6675164
       6254.3349       8.2783224
       6255.3495       8.3414067
       6256.3641       8.4016915
       6257.3787       8.5049009
       6258.3932       9.0607600
       6259.4078       9.0140540
       6260.4224       9.3141307
       6261.4369       9.8218357
       6262.4515       9.7581225
       6263.4661       9.4164396
       6264.4806       9.1918599
       6265.4952       9.0666170
       6266.5098       8.8491662
       6267.5243       8.6487575
       6268.5389       8.6747105
       6269.5535       8.9697119
       6270.5680       9.0252633
       6271.5826       9.2474813
       6272.5972       9.2356785
       6273.6118       9.1793406
       6274.6263       9.0950110
       6275.6409       8.5991860
       6276.6555       8.2304750
       6277.6700       8.0340452
       6278.6846       8.7010945
       6279.6992       9.0804472
       6280.7137       9.1969896
       6281.7283       9.5459558
       6282.7429       9.8546285
       6283.7574       9.8715394
       6284.7720       9.6006309
       6285.7866       9.1911482
       6286.8011       9.2261444
       6287.8157       9.0851619
       6288.8303       9.0673853
       6289.8449       9.0075968
       6290.8594       8.9858447
       6291.8740       9.0472252
       6292.8886       8.7216723
       6293.9031       8.8224265
       6294.9177       8.8335671
       6295.9323       8.9501244
       6296.9468       8.9583664
       6297.9614       9.0669833
       6298.9760       9.0658170
       6299.9905       8.8782971
       6301.0051       8.3602305
       6302.0197       8.1810972
       6303.0342       8.7720723
       6304.0488       8.9372807
       6305.0634       9.0875965
       6306.0780       9.6316872
       6307.0925       9.9455830
       6308.1071       10.099143
       6309.1217       9.8898744
       6310.1362       9.4650922
       6311.1508       9.3748890
       6312.1654       9.5184782
       6313.1799       9.2755565
       6314.1945       9.1492713
       6315.2091       9.1971533
       6316.2236       9.2247065
       6317.2382       9.0607214
       6318.2528       9.0748109
       6319.2674       9.0481047
       6320.2819       9.1446192
       6321.2965       9.0168490
       6322.3111       8.9977735
       6323.3256       8.9196705
       6324.3402       9.2691521
       6325.3548       9.1884429
       6326.3693       9.3473321
       6327.3839       9.5376736
       6328.3985       9.1122481
       6329.4130       9.0394156
       6330.4276       8.7930368
       6331.4422       9.0503957
       6332.4567       9.1667604
       6333.4713       9.3684732
       6334.4859       9.4550453
       6335.5005       9.7071312
       6336.5150       9.6944269
       6337.5296       9.4371586
       6338.5442       9.0599147
       6339.5587       9.0612581
       6340.5733       9.2241027
       6341.5879       8.9300094
       6342.6024       8.9154624
       6343.6170       8.9089124
       6344.6316       8.8874843
       6345.6461       9.0829700
       6346.6607       9.1088690
       6347.6753       9.0696716
       6348.6898       9.2340024
       6349.7044       9.2790759
       6350.7190       9.0169662
       6351.7336       9.0914417
       6352.7481       9.2116039
       6353.7627       9.3849536
       6354.7773       9.5304258
       6355.7918       9.6596964
       6356.8064       9.8544061
       6357.8210       9.6457896
       6358.8355       9.5511137
       6359.8501       9.6722329
       6360.8647       9.4829902
       6361.8792       9.5487062
       6362.8938       9.4658237
       6363.9084       9.5740205
       6364.9229       9.7507665
       6365.9375       9.6776904
       6366.9521       9.8420049
       6367.9667       9.9160653
       6368.9812       9.7971970
       6369.9958       9.7915237
       6371.0104       9.7746215
       6372.0249       9.6993079
       6373.0395       9.7772392
       6374.0541       9.6748326
       6375.0686       9.7315321
       6376.0832       9.6256504
       6377.0978       9.5718489
       6378.1123       9.5559198
       6379.1269       9.4864385
       6380.1415       9.6014382
       6381.1561       9.5166578
       6382.1706       9.5191086
       6383.1852       9.5783751
       6384.1998       9.6147006
       6385.2143       9.5306334
       6386.2289       9.5243039
       6387.2435       9.6482021
       6388.2580       9.7238977
       6389.2726       9.6445142
       6390.2872       9.3990112
       6391.3017       9.6168045
       6392.3163       9.4770778
       6393.3309       9.5224681
       6394.3454       9.3523845
       6395.3600       9.7506477
       6396.3746       9.8141899
       6397.3892       9.7122274
       6398.4037       9.7876006
       6399.4183       9.5601047
       6400.4329       9.5932396
       6401.4474       9.5338525
       6402.4620       9.8145782
       6403.4766       9.8431706
       6404.4911       9.7316355
       6405.5057       10.003244
       6406.5203       9.8508212
       6407.5348       9.9060613
       6408.5494       9.7691219
       6409.5640       9.7155766
       6410.5785       9.6853160
       6411.5931       9.7409551
       6412.6077       9.8314737
       6413.6223       10.013410
       6414.6368       9.8058179
       6415.6514       9.7178331
       6416.6660       9.6086014
       6417.6805       9.5945575
       6418.6951       9.7254148
       6419.7097       9.9462859
       6420.7242       10.249310
       6421.7388       9.9867996
       6422.7534       9.8342883
       6423.7679       9.8010172
       6424.7825       9.9463745
       6425.7971       9.9196472
       6426.8116       9.9104809
       6427.8262       9.9781083
       6428.8408       9.8571707
       6429.8554       9.6637979
       6430.8699       9.8545948
       6431.8845       9.8311791
       6432.8991       9.7001545
       6433.9136       9.6026684
       6434.9282       9.4388386
       6435.9428       9.3113129
       6436.9573       9.4388121
       6437.9719       9.6916351
       6438.9865       9.6980080
       6440.0010       9.7420841
       6441.0156       10.229837
       6442.0302       10.553516
       6443.0448       10.623210
       6444.0593       10.466626
       6445.0739       10.257362
       6446.0885       10.069513
       6447.1030       10.196549
       6448.1176       10.114920
       6449.1322       10.062896
       6450.1467       9.9786642
       6451.1613       10.187691
       6452.1759       10.143623
       6453.1904       10.296434
       6454.2050       10.169546
       6455.2196       10.212718
       6456.2341       10.121482
       6457.2487       10.031842
       6458.2633       10.153685
       6459.2779       10.181901
       6460.2924       10.184405
       6461.3070       9.9448640
       6462.3216       10.056090
       6463.3361       9.9962622
       6464.3507       10.023026
       6465.3653       9.7999924
       6466.3798       9.9603613
       6467.3944       9.9753323
       6468.4090       9.9837249
       6469.4235       9.9010255
       6470.4381       10.146479
       6471.4527       10.214244
       6472.4672       10.001242
       6473.4818       9.7515396
       6474.4964       9.6823848
       6475.5110       9.6826987
       6476.5255       9.3065686
       6477.5401       9.0145682
       6478.5547       8.9962863
       6479.5692       9.1505548
       6480.5838       9.2328884
       6481.5984       9.5236158
       6482.6129       10.141057
       6483.6275       10.146275
       6484.6421       10.241633
       6485.6566       9.9359839
       6486.6712       9.9689364
       6487.6858       10.138317
       6488.7004       9.9004117
       6489.7149       9.8278525
       6490.7295       9.9880289
       6491.7441       10.069971
       6492.7586       10.195803
       6493.7732       10.239011
       6494.7878       10.222770
       6495.8023       10.000592
       6496.8169       9.9985022
       6497.8315       9.6425263
       6498.8460       8.8600681
       6499.8606       8.1035781
       6500.8752       7.2758914
       6501.8897       6.5852064
       6502.9043       5.9232922
       6503.9189       5.3820946
       6504.9335             NaN
       6505.9480             NaN
       6506.9626             NaN
       6507.9772             NaN
       6508.9917             NaN
       6510.0063             NaN
       6511.0209             NaN
       6512.0354             NaN
       6513.0500             NaN
       6514.0646             NaN
       6515.0791             NaN
       6516.0937             NaN
       6517.1083             NaN
       6518.1228             NaN
       6519.1374             NaN
       6520.1520             NaN
       6521.1666             NaN
       6522.1811             NaN
       6523.1957             NaN
       6524.2103             NaN
       6525.2248             NaN
       6526.2394             NaN
       6527.2540             NaN
       6528.2685             NaN
       6529.2831             NaN
       6530.2977             NaN
       6531.3122             NaN
       6532.3268             NaN
       6533.3414             NaN
       6534.3559             NaN
       6535.3705             NaN
       6536.3851             NaN
       6537.3997             NaN
       6538.4142             NaN
       6539.4288             NaN
       6540.4434             NaN
       6541.4579             NaN
       6542.4725             NaN
       6543.4871             NaN
       6544.5016             NaN
       6545.5162             NaN
       6546.5308             NaN
       6547.5453             NaN
       6548.5599             NaN
       6549.5745             NaN
       6550.5891             NaN
       6551.6036             NaN
       6552.6182             NaN
       6553.6328             NaN
       6554.6473             NaN
       6555.6619             NaN
       6556.6765             NaN
       6557.6910             NaN
       6558.7056             NaN
       6559.7202             NaN
       6560.7347             NaN
       6561.7493             NaN
       6562.7639             NaN
       6563.7784             NaN
       6564.7930             NaN
       6565.8076             NaN
       6566.8222             NaN
       6567.8367             NaN
       6568.8513             NaN
       6569.8659             NaN
       6570.8804             NaN
       6571.8950             NaN
       6572.9096             NaN
       6573.9241             NaN
       6574.9387             NaN
       6575.9533             NaN
       6576.9678             NaN
       6577.9824             NaN
       6578.9970             NaN
       6580.0115             NaN
       6581.0261             NaN
       6582.0407             NaN
       6583.0553             NaN
       6584.0698             NaN
       6585.0844             NaN
       6586.0990             NaN
       6587.1135             NaN
       6588.1281             NaN
       6589.1427             NaN
       6590.1572             NaN
       6591.1718             NaN
       6592.1864             NaN
       6593.2009             NaN
       6594.2155             NaN
       6595.2301       9.8048901
       6596.2446       9.9821062
       6597.2592       10.072115
       6598.2738       9.7537495
       6599.2884       9.2490494
       6600.3029       9.1697221
       6601.3175       9.3868485
       6602.3321       9.3306275
       6603.3466       9.4606844
       6604.3612       10.182085
       6605.3758       10.632106
       6606.3903       10.549312
       6607.4049       10.506666
       6608.4195       11.128761
       6609.4340       11.307802
       6610.4486       10.869945
       6611.4632       10.659397
       6612.4778       10.561336
       6613.4923       10.228662
       6614.5069       10.208094
       6615.5215       10.186270
       6616.5360       10.080585
       6617.5506       10.132858
       6618.5652       10.166171
       6619.5797       10.124378
       6620.5943       9.9863563
       6621.6089       9.8884202
       6622.6234       9.8402835
       6623.6380       10.029577
       6624.6526       10.107076
       6625.6671       10.038944
       6626.6817       9.8362478
       6627.6963       10.107669
       6628.7109       10.095467
       6629.7254       9.8942788
       6630.7400       9.8046149
       6631.7546       8.8721388
       6632.7691       8.9619311
       6633.7837       9.2059258
       6634.7983       9.4326127
       6635.8128       9.9645348
       6636.8274       10.581067
       6637.8420       11.047253
       6638.8565       11.389102
       6639.8711       10.876027
       6640.8857       10.474374
       6641.9002       10.024296
       6642.9148       10.183906
       6643.9294       9.8938595
       6644.9440       9.6896075
       6645.9585       10.037091
       6646.9731       10.450805
       6647.9877       10.337728
       6649.0022       10.001686
       6650.0168       9.8123435
       6651.0314       9.7507904
       6652.0459       9.8829930
       6653.0605       9.7480690
       6654.0751       9.7351109
       6655.0896       9.8173835
       6656.1042       9.8789557
       6657.1188       9.9983632
       6658.1334       9.8907520
       6659.1479       10.097901
       6660.1625       10.025495
       6661.1771       10.167235
       6662.1916       10.347536
       6663.2062       10.242127
       6664.2208       10.234074
       6665.2353       10.073246
       6666.2499       10.006284
       6667.2645       9.7899479
       6668.2790       9.5927496
       6669.2936       9.0977390
       6670.3082       9.0690063
       6671.3227       9.0743446
       6672.3373       9.6657376
       6673.3519       9.8449419
       6674.3665       10.478373
       6675.3810       10.645480
       6676.3956       11.005105
       6677.4102       10.884974
       6678.4247       10.426277
       6679.4393       10.038712
       6680.4539       10.076027
       6681.4684       9.7431516
       6682.4830       9.5387995
       6683.4976       9.6865866
       6684.5121       9.5492971
       6685.5267       9.7043062
       6686.5413       9.9609515
       6687.5558       10.281227
       6688.5704       10.318187
       6689.5850       10.202631
       6690.5996       9.9684395
       6691.6141       9.7353517
       6692.6287       9.2433100
       6693.6433       9.0967203
       6694.6578       9.0952735
       6695.6724       9.2006636
       6696.6870       9.6669647
       6697.7015       10.276822
       6698.7161       10.842188
       6699.7307       11.566343
       6700.7452       11.790664
       6701.7598       11.454891
       6702.7744       11.121912
       6703.7889       11.306538
       6704.8035       11.068754
       6705.8181       11.042576
       6706.8327       10.799445
       6707.8472       10.419932
       6708.8618       10.198837
       6709.8764       9.9345985
       6710.8909       9.7974124
       6711.9055       9.9456325
       6712.9201       9.8612546
       6713.9346       10.177580
       6714.9492       10.507561
       6715.9638       10.596673
       6716.9783       11.010425
       6717.9929       10.982603
       6719.0075       10.476248
       6720.0221       9.8420464
       6721.0366       9.2915379
       6722.0512       9.1777060
       6723.0658       9.1791563
       6724.0803       9.7486695
       6725.0949       10.086346
       6726.1095       10.460526
       6727.1240       10.379399
       6728.1386       10.514664
       6729.1532       10.174893
       6730.1677       10.000336
       6731.1823       9.9156744
       6732.1969       9.9713161
       6733.2114       10.113462
       6734.2260       9.7887453
       6735.2406       9.0400042
       6736.2552       8.9384212
       6737.2697       8.8462330
       6738.2843       9.1125523
       6739.2989       9.7073110
       6740.3134       10.056636
       6741.3280       10.379727
       6742.3426       9.9494958
       6743.3571       9.7602925
       6744.3717       9.6888327
       6745.3863       9.6077845
       6746.4008       9.5770347
       6747.4154       9.7444910
       6748.4300       9.8808825
       6749.4445       10.034774
       6750.4591       10.092569
       6751.4737       9.8276461
       6752.4883       9.6785989
       6753.5028       9.2071346
       6754.5174       9.7631520
       6755.5320       9.6912062
       6756.5465       10.160265
       6757.5611       9.9801926
       6758.5757       10.149794
       6759.5902       10.373111
       6760.6048       9.9780780
       6761.6194       10.023376
       6762.6339       9.8613108
       6763.6485       9.5468338
       6764.6631       9.6507088
       6765.6776       9.7928042
       6766.6922       9.8393131
       6767.7068       9.6995411
       6768.7214       9.5969740
       6769.7359       9.5829143
       6770.7505       9.5220539
       6771.7651       8.8930985
       6772.7796       8.5707170
       6773.7942       8.3745454
       6774.8088       8.4514682
       6775.8233       9.4660229
       6776.8379       10.241908
       6777.8525       10.085097
       6778.8670       10.305156
       6779.8816       10.592299
       6780.8962       10.494011
       6781.9108       9.8052488
       6782.9253       10.095086
       6783.9399       10.224287
       6784.9545       10.359457
       6785.9690       10.574440
       6786.9836       10.049099
       6787.9982       9.6799549
       6789.0127       9.4975862
       6790.0273       9.6325139
       6791.0419       9.6624786
       6792.0564       9.9527811
       6793.0710       9.8486373
       6794.0856       10.327749
       6795.1001       10.181433
       6796.1147       10.238061
       6797.1293       9.9829374
       6798.1439       9.8769562
       6799.1584       9.7269265
       6800.1730       9.7309852
       6801.1876       9.4907568
       6802.2021       9.5590338
       6803.2167       9.2635757
       6804.2313       9.2899390
       6805.2458       9.3395408
       6806.2604       9.5972118
       6807.2750       9.8286023
       6808.2895       10.102054
       6809.3041       10.232404
       6810.3187       10.431577
       6811.3332       10.170060
       6812.3478       9.9382439
       6813.3624       9.9569513
       6814.3770       9.8528608
       6815.3915       9.5380718
       6816.4061       9.1178266
       6817.4207       8.8700087
       6818.4352       9.0531371
       6819.4498       9.1861595
       6820.4644       9.3973774
       6821.4789       9.9011127
       6822.4935       10.810812
       6823.5081       10.976764
       6824.5226       10.911307
       6825.5372       10.239044
       6826.5518       10.032721
       6827.5663       9.6119948
       6828.5809       9.3625304
       6829.5955       9.2801218
       6830.6101       9.5288694
       6831.6246       9.6599161
       6832.6392       9.9531317
       6833.6538       10.048985
       6834.6683       10.180800
       6835.6829       10.310085
       6836.6975       10.242609
       6837.7120       10.080565
       6838.7266       10.074190
       6839.7412       9.8019326
       6840.7557       8.9733553
       6841.7703       8.6039674
       6842.7849       8.4956978
       6843.7995       8.8033062
       6844.8140       9.2983210
       6845.8286       10.129607
       6846.8432       10.846069
       6847.8577       11.135937
       6848.8723       10.993670
       6849.8869       10.580197
       6850.9014       10.285007
       6851.9160       10.163137
       6852.9306       9.9659423
       6853.9451       9.8574187
       6854.9597       9.9567543
       6855.9743       9.9560236
       6856.9888       9.9088117
       6858.0034       9.7303505
       6859.0180       9.4802733
       6860.0326       9.6465921
       6861.0471       9.7311234
       6862.0617       9.8350943
       6863.0763       9.7582761
       6864.0908       10.174713
       6865.1054       10.161863
       6866.1200       10.219141
       6867.1345       10.097682
       6868.1491       9.6167011
       6869.1637       9.2225702
       6870.1782       9.3700441
       6871.1928       9.6277159
       6872.2074       9.9714662
       6873.2219       10.035836
       6874.2365       10.310720
       6875.2511       10.891898
       6876.2657       11.300539
       6877.2802       11.473111
       6878.2948       10.861531
       6879.3094       10.430302
       6880.3239       10.289238
       6881.3385       10.092861
       6882.3531       10.019593
       6883.3676       10.010880
       6884.3822       10.028947
       6885.3968       10.092766
       6886.4113       9.9664456
       6887.4259       10.096707
       6888.4405       10.128210
       6889.4551       9.9975802
       6890.4696       9.8814235
       6891.4842       9.8496227
       6892.4988       9.7991236
       6893.5133       10.162786
       6894.5279       10.165000
       6895.5425       10.170490
       6896.5570       10.242572
       6897.5716       10.348295
       6898.5862       10.408170
       6899.6007       10.144381
       6900.6153       9.8054956
       6901.6299       9.7436336
       6902.6444       10.248329
       6903.6590       10.269622
       6904.6736       9.8978581
       6905.6882       10.484300
       6906.7027       10.475940
       6907.7173       10.579652
       6908.7319       10.245860
       6909.7464       10.308827
       6910.7610       10.224704
       6911.7756       10.111789
       6912.7901       9.8566516
       6913.8047       9.8395464
       6914.8193       9.9255219
       6915.8338       9.9920027
       6916.8484       10.045055
       6917.8630       10.134684
       6918.8775       10.010461
       6919.8921       9.9218045
       6920.9067       9.8982863
       6921.9213       9.9617089
       6922.9358       10.163484
       6923.9504       10.109331
       6924.9650       10.094772
       6925.9795       10.111073
       6926.9941       10.166692
       6928.0087       9.8437898
       6929.0232       10.157330
       6930.0378       10.089064
       6931.0524       10.067914
       6932.0669       10.276265
       6933.0815       10.521415
       6934.0961       10.308696
       6935.1106       10.137498
       6936.1252       10.083579
       6937.1398       10.080178
       6938.1544       10.224780
       6939.1689       10.272044
       6940.1835       10.150180
       6941.1981       10.426528
       6942.2126       10.305085
       6943.2272       10.279001
       6944.2418       10.232374
       6945.2563       10.242412
       6946.2709       10.184827
       6947.2855       10.167573
       6948.3000       10.319434
       6949.3146       10.243825
       6950.3292       10.314775
       6951.3438       10.177461
       6952.3583       10.466268
       6953.3729       10.215460
       6954.3875       10.045688
       6955.4020       10.053743
       6956.4166       10.108786
       6957.4312       10.125000
       6958.4457       10.194809
       6959.4603       10.234231
       6960.4749       10.222073
       6961.4894       10.087375
       6962.5040       9.8863657
       6963.5186       9.8939976
       6964.5331       9.8557766
       6965.5477       9.7964751
       6966.5623       9.9222871
       6967.5769       9.9179784
       6968.5914       9.9568210
       6969.6060       10.167268
       6970.6206       10.067648
       6971.6351       10.160032
       6972.6497       10.215823
       6973.6643       10.185421
       6974.6788       10.102066
       6975.6934       10.139002
       6976.7080       10.106902
       6977.7225       10.198353
       6978.7371       10.098588
       6979.7517       10.128149
       6980.7662       10.338460
       6981.7808       10.203097
       6982.7954       10.035645
       6983.8100       10.241314
       6984.8245       9.9173151
       6985.8391       9.9820055
       6986.8537       10.011319
       6987.8682       9.7574296
       6988.8828       9.7069831
       6989.8974       9.7499542
       6990.9119       9.6434520
       6991.9265       9.6383205
       6992.9411       9.8063599
       6993.9556       10.035734
       6994.9702       9.9418738
       6995.9848       10.091937
       6996.9993       9.8286613
       6998.0139       9.8656692
       6999.0285       9.9861686
       7000.0431       9.7481723
       7001.0576       9.6651424
       7002.0722       9.7114170
       7003.0868       9.6025122
       7004.1013       9.6609485
       7005.1159       9.6007819
       7006.1305       9.7003101
       7007.1450       9.6627233
       7008.1596       9.7505792
       7009.1742       9.8234709
       7010.1887       9.9263759
       7011.2033       9.9424413
       7012.2179       9.8953915
       7013.2325       10.017457
       7014.2470       9.9535109
       7015.2616       9.8844817
       7016.2762       10.107894
       7017.2907       9.9248831
       7018.3053       9.8074844
       7019.3199       10.092083
       7020.3344       10.138846
       7021.3490       10.249511
       7022.3636       10.111357
       7023.3781       10.191949
       7024.3927       10.251573
       7025.4073       10.321461
       7026.4218       10.450866
       7027.4364       10.777723
       7028.4510       10.618342
       7029.4656       10.500806
       7030.4801       10.446208
       7031.4947       10.307857
       7032.5093       10.263795
       7033.5238       10.451433
       7034.5384       10.602985
       7035.5530       10.288963
       7036.5675       10.406932
       7037.5821       10.353436
       7038.5967       10.271030
       7039.6112       10.012968
       7040.6258       9.8727707
       7041.6404       9.7944755
       7042.6549       9.7190764
       7043.6695       9.4758716
       7044.6841       9.1713155
       7045.6987       9.1310794
       7046.7132       9.0658963
       7047.7278       9.2188562
       7048.7424       9.3867863
       7049.7569       9.4657867
       7050.7715       9.5391163
       7051.7861       9.3809561
       7052.8006       9.4518099
       7053.8152       9.6075774
       7054.8298       9.5079362
       7055.8443       9.4567355
       7056.8589       9.7949613
       7057.8735       9.7550296
       7058.8881       9.7811915
       7059.9026       9.8877361
       7060.9172       10.138341
       7061.9318       10.038887
       7062.9463       10.235337
       7063.9609       10.169619
       7064.9755       9.9895885
       7065.9900       10.202084
       7067.0046       9.9363726
       7068.0192       9.6772837
       7069.0337       9.6481866
       7070.0483       9.7164828
       7071.0629       9.8059747
       7072.0774       9.6221706
       7073.0920       9.4222771
       7074.1066       9.4411461
       7075.1212       9.6126479
       7076.1357       9.4123814
       7077.1503       9.4186282
       7078.1649       9.5244919
       7079.1794       9.3883850
       7080.1940       9.5327745
       7081.2086       9.3657248
       7082.2231       9.5777726
       7083.2377       9.5182923
       7084.2523       9.2584136
       7085.2668       9.0925471
       7086.2814       9.0797538
       7087.2960       9.1950206
       7088.3105       8.8480230
       7089.3251       8.8356099
       7090.3397       8.8835329
       7091.3543       9.5597531
       7092.3688       9.7305814
       7093.3834       9.5047851
       7094.3980       9.4766702
       7095.4125       9.3995269
       7096.4271       9.4935484
       7097.4417       9.5806128
       7098.4562       9.8292890
       7099.4708       10.391318
       7100.4854       10.653503
       7101.4999       10.297815
       7102.5145       9.2626041
       7103.5291       8.8397644
       7104.5436       8.8508217
       7105.5582       9.3175370
       7106.5728       9.8061590
       7107.5874       10.073362
       7108.6019       10.636670
       7109.6165       10.743708
       7110.6311       10.484245
       7111.6456       10.101381
       7112.6602       9.5295564
       7113.6748       9.2475754
       7114.6893       9.2587764
       7115.7039       9.1106854
       7116.7185       9.1204185
       7117.7330       9.4050247
       7118.7476       9.4729835
       7119.7622       9.6531558
       7120.7768       9.5944121
       7121.7913       9.3874943
       7122.8059       9.3510804
       7123.8205       9.4381081
       7124.8350       9.2019939
       7125.8496       9.1888530
       7126.8642       9.2176929
       7127.8787       9.4546545
       7128.8933       9.3357040
       7129.9079       9.4807897
       7130.9224       9.4914782
       7131.9370       9.2832784
       7132.9516       9.3894451
       7133.9661       9.4081518
       7134.9807       9.2597641
       7135.9953       9.2091866
       7137.0099       9.1308336
       7138.0244       9.3619271
       7139.0390       9.1731743
       7140.0536       9.0307892
       7141.0681       8.3047441
       7142.0827       7.4333177
       7143.0973       7.0260933
       7144.1118       7.8906031
       7145.1264       8.7446094
       7146.1410       10.159044
       7147.1555       11.214048
       7148.1701       11.833299
       7149.1847       11.315841
       7150.1992       10.832127
       7151.2138       10.442508
       7152.2284       10.343335
       7153.2430       10.090036
       7154.2575       10.111879
       7155.2721       10.534091
       7156.2867       10.522160
       7157.3012       10.298105
       7158.3158       9.8265215
       7159.3304       9.8775519
       7160.3449       9.4812527
       7161.3595       9.6887871
       7162.3741       9.9191045
       7163.3886       10.173675
       7164.4032       10.182680
       7165.4178       10.076293
       7166.4323       10.039428
       7167.4469       9.7365802
       7168.4615       9.6099204
       7169.4761       9.6780377
       7170.4906       9.3939514
       7171.5052       9.3161875
       7172.5198       9.2697835
       7173.5343       9.1993201
       7174.5489       8.9629573
       7175.5635       9.2590401
       7176.5780       9.0348372
       7177.5926       9.2280129
       7178.6072       9.6158833
       7179.6217       9.8532060
       7180.6363       10.191745
       7181.6509       10.236292
       7182.6655       10.193580
       7183.6800       9.9757931
       7184.6946       9.9002589
       7185.7092       9.8254460
       7186.7237       9.4302265
       7187.7383       8.8813403
       7188.7529       8.1515239
       7189.7674       8.0280656
       7190.7820       8.6500930
       7191.7966       9.4906867
       7192.8111       9.8705040
       7193.8257       11.182427
       7194.8403       11.987962
       7195.8548       11.861933
       7196.8694       11.032908
       7197.8840       10.697604
       7198.8986       10.433757
       7199.9131       9.8755372
       7200.9277       9.2190778
       7201.9423       9.0334771
       7202.9568       8.9792740
       7203.9714       9.1945818
       7204.9860       9.6322971
       7206.0005       9.4845101
       7207.0151       9.9491037
       7208.0297       10.452113
       7209.0442       10.744738
       7210.0588       10.513218
       7211.0734       10.384510
       7212.0879       10.143500
       7213.1025       9.6797894
       7214.1171       9.0366870
       7215.1317       8.2649813
       7216.1462       8.3744290
       7217.1608       8.8111711
       7218.1754       9.4341044
       7219.1899       10.178235
       7220.2045       12.061528
       7221.2191       12.796622
       7222.2336       12.123593
       7223.2482       12.022972
       7224.2628       11.163500
       7225.2773       10.948014
       7226.2919       10.313694
       7227.3065       10.166772
       7228.3210       9.8551239
       7229.3356       9.8021281
       7230.3502       9.8143251
       7231.3648       9.9360550
       7232.3793       9.8785097
       7233.3939       9.5800788
       7234.4085       9.5146631
       7235.4230       9.6720335
       7236.4376       9.8318541
       7237.4522       10.122590
       7238.4667       10.153571
       7239.4813       10.747977
       7240.4959       10.938740
       7241.5104       10.652281
       7242.5250       10.472500
       7243.5396       9.9566874
       7244.5542       9.3086516
       7245.5687       8.8684118
       7246.5833       9.0791802
       7247.5979       9.2262603
       7248.6124       9.7860404
       7249.6270       10.540495
       7250.6416       11.313716
       7251.6561       11.946110
       7252.6707       11.573571
       7253.6853       11.104917
       7254.6998       10.932654
       7255.7144       10.608095
       7256.7290       10.206963
       7257.7435       10.057293
       7258.7581       10.143844
       7259.7727       10.138748
       7260.7873       10.100590
       7261.8018       10.062968
       7262.8164       10.057121
       7263.8310       10.013549
       7264.8455       10.142140
       7265.8601       9.8912387
       7266.8747       9.8709679
       7267.8892       9.8751544
       7268.9038       9.6153457
       7269.9184       9.7205009
       7270.9329       9.5569320
       7271.9475       9.8224011
       7272.9621       9.8170131
       7273.9766       10.337000
       7274.9912       10.382715
       7276.0058       10.505477
       7277.0204       10.358525
       7278.0349       9.8472508
       7279.0495       9.5272037
       7280.0641       9.3439595
       7281.0786       9.5381323
       7282.0932       9.8346425
       7283.1078       10.401785
       7284.1223       11.331789
       7285.1369       11.396431
       7286.1515       11.171182
       7287.1660       10.986348
       7288.1806       10.786427
       7289.1952       10.558706
       7290.2098       10.264292
       7291.2243       10.283346
       7292.2389       10.167360
       7293.2535       9.9812296
       7294.2680       10.145631
       7295.2826       10.178962
       7296.2972       10.208617
       7297.3117       10.112679
       7298.3263       10.269191
       7299.3409       10.322569
       7300.3554       10.339629
       7301.3700       10.534056
       7302.3846       10.596521
       7303.3991       10.373800
       7304.4137       10.502967
       7305.4283       10.339957
       7306.4429       10.350259
       7307.4574       10.290419
       7308.4720       10.178373
       7309.4866       10.378903
       7310.5011       10.304066
       7311.5157       10.475317
       7312.5303       10.328021
       7313.5448       10.704107
       7314.5594       10.600067
       7315.5740       10.403515
       7316.5885       10.292313
       7317.6031       10.324751
       7318.6177       10.297154
       7319.6322       10.671950
       7320.6468       10.842060
       7321.6614       10.922700
       7322.6760       11.210443
       7323.6905       11.058632
       7324.7051       10.790758
       7325.7197       10.951188
       7326.7342       10.698337
       7327.7488       10.666256
       7328.7634       10.565790
       7329.7779       10.403740
       7330.7925       10.533336
       7331.8071       10.767884
       7332.8216       10.604078
       7333.8362       10.516610
       7334.8508       10.453863
       7335.8653       10.358502
       7336.8799       10.374722
       7337.8945       10.360958
       7338.9091       10.370588
       7339.9236       10.228422
       7340.9382       10.281692
       7341.9528       10.201549
       7342.9673       10.222341
       7343.9819       10.297844
       7344.9965       10.426547
       7346.0110       10.527176
       7347.0256       10.261086
       7348.0402       10.459198
       7349.0547       10.366882
       7350.0693       10.446386
       7351.0839       10.524580
       7352.0985       10.730211
       7353.1130       10.455660
       7354.1276       10.739492
       7355.1422       10.942820
       7356.1567       10.811182
       7357.1713       10.625642
       7358.1859       10.968144
       7359.2004       10.899793
       7360.2150       10.796463
       7361.2296       10.853823
       7362.2441       10.957217
       7363.2587       11.237918
       7364.2733       11.155742
       7365.2878       10.823164
       7366.3024       10.930326
       7367.3170       10.747465
       7368.3316       10.855954
       7369.3461       10.719067
       7370.3607       10.599670
       7371.3753       10.524385
       7372.3898       10.478886
       7373.4044       10.466646
       7374.4190       10.587244
       7375.4335       10.306349
       7376.4481       10.498718
       7377.4627       10.386150
       7378.4772       10.606766
       7379.4918       10.917807
       7380.5064       10.626360
       7381.5209       10.887474
       7382.5355       10.783877
       7383.5501       10.789831
       7384.5647       10.627493
       7385.5792       10.740601
       7386.5938       11.038310
       7387.6084       10.961002
       7388.6229       11.325431
       7389.6375       11.539628
       7390.6521       11.517928
       7391.6666       11.133885
       7392.6812       11.359795
       7393.6958       11.346535
       7394.7103       11.249096
       7395.7249       11.155983
       7396.7395       11.476249
       7397.7540       11.177140
       7398.7686       11.087492
       7399.7832       11.237851
       7400.7978       11.085792
       7401.8123       10.715125
       7402.8269       10.770023
       7403.8415       10.569492
       7404.8560       10.597125
       7405.8706       10.385963
       7406.8852       10.495823
       7407.8997       11.104588
       7408.9143       11.116365
       7409.9289       10.880000
       7410.9434       11.344976
       7411.9580       11.641934
       7412.9726       11.477005
       7413.9872       11.271490
       7415.0017       11.069657
       7416.0163       11.725643
       7417.0309       11.685473
       7418.0454       11.632320
       7419.0600       11.179774
       7420.0746       11.412010
       7421.0891       11.695727
       7422.1037       11.609823
       7423.1183       11.452338
       7424.1328       11.158237
       7425.1474       11.240912
       7426.1620       11.212750
       7427.1765       11.308060
       7428.1911       11.062603
       7429.2057       11.029555
       7430.2203       11.240535
       7431.2348       11.055987
       7432.2494       11.042865
       7433.2640       11.255028
       7434.2785       11.203042
       7435.2931       11.350941
       7436.3077       11.357937
       7437.3222       11.258477
       7438.3368       11.356485
       7439.3514       11.279419
       7440.3659       11.464763
       7441.3805       11.279805
       7442.3951       11.135463
       7443.4096       11.180364
       7444.4242       11.083196
       7445.4388       11.137336
       7446.4534       10.923760
       7447.4679       10.909262
       7448.4825       11.265847
       7449.4971       11.181689
       7450.5116       11.290637
       7451.5262       11.005339
       7452.5408       11.371091
       7453.5553       11.225841
       7454.5699       11.202569
       7455.5845       11.341862
       7456.5990       11.267163
       7457.6136       11.286423
       7458.6282       11.314109
       7459.6427       11.260192
       7460.6573       11.279071
       7461.6719       11.245355
       7462.6865       11.494020
       7463.7010       11.305622
       7464.7156       11.388993
       7465.7302       11.419213
       7466.7447       11.294303
       7467.7593       11.153558
       7468.7739       11.050102
       7469.7884       11.455970
       7470.8030       11.279100
       7471.8176       11.203199
       7472.8321       11.210836
       7473.8467       11.298506
       7474.8613       11.395622
       7475.8759       11.262669
       7476.8904       11.228175
       7477.9050       11.139298
       7478.9196       11.131221
       7479.9341       10.909532
       7480.9487       11.038000
       7481.9633       11.114625
       7482.9778       11.131551
       7483.9924       11.388585
       7485.0070       11.332735
       7486.0215       11.664261
       7487.0361       11.544787
       7488.0507       11.344925
       7489.0652       11.319116
       7490.0798       11.383294
       7491.0944       11.207328
       7492.1090       11.360551
       7493.1235       11.386583
       7494.1381       11.220891
       7495.1527       11.018183
       7496.1672       10.173023
       7497.1818       10.240098
       7498.1964       10.150500
       7499.2109       10.991430
       7500.2255       11.321904
       7501.2401       11.500175
       7502.2546       11.864426
       7503.2692       11.553784
       7504.2838       11.878992
       7505.2983       11.969290
       7506.3129       12.615233
       7507.3275       13.479559
       7508.3421       13.263405
       7509.3566       12.930983
       7510.3712       12.011517
       7511.3858       10.717588
       7512.4003       10.265603
       7513.4149       10.800311
       7514.4295       11.644748
       7515.4440       12.611573
       7516.4586       13.960862
       7517.4732       14.211601
       7518.4877       13.631482
       7519.5023       13.358286
       7520.5169       12.718860
       7521.5315       11.981085
       7522.5460       11.057602
       7523.5606       11.169427
       7524.5752       11.493080
       7525.5897       11.630544
       7526.6043       12.040968
       7527.6189       12.733392
       7528.6334       12.783551
       7529.6480       12.487356
       7530.6626       12.099725
       7531.6771       11.914973
       7532.6917       11.808756
       7533.7063       11.644238
       7534.7208       11.726822
       7535.7354       11.870662
       7536.7500       11.873208
       7537.7646       11.753506
       7538.7791       11.657248
       7539.7937       11.693765
       7540.8083       11.695150
       7541.8228       11.483183
       7542.8374       11.687378
       7543.8520       11.836748
       7544.8665       11.872474
       7545.8811       11.888333
       7546.8957       11.682234
       7547.9102       11.817281
       7548.9248       11.854054
       7549.9394       11.710447
       7550.9539       11.214247
       7551.9685       9.4844789
       7552.9831       7.8184273
       7553.9977       8.2927917
       7555.0122       10.076275
       7556.0268       11.034442
       7557.0414       12.962151
       7558.0559       15.272775
       7559.0705       17.161917
       7560.0851       14.946746
       7561.0996       12.871901
       7562.1142       12.228343
       7563.1288       11.991312
       7564.1433       12.601281
       7565.1579       12.984511
       7566.1725       13.745332
       7567.1870       14.011086
       7568.2016       13.598902
       7569.2162       13.046105
       7570.2308       12.512898
       7571.2453       12.083540
       7572.2599       11.608274
       7573.2745       11.688662
       7574.2890       11.766273
       7575.3036       12.332132
       7576.3182       12.433338
       7577.3327       12.479342
       7578.3473       12.482530
       7579.3619       12.179088
       7580.3764       12.000040
       7581.3910       11.800249
       7582.4056       11.746172
       7583.4202       11.408622
       7584.4347       11.216690
       7585.4493       11.136490
       7586.4639       10.862569
       7587.4784       10.574589
       7588.4930       10.840318
       7589.5076       11.249460
       7590.5221       11.593790
       7591.5367       11.570281
       7592.5513       12.608148
       7593.5658       12.971669
       7594.5804       12.444092
       7595.5950       12.225458
       7596.6095       11.893383
       7597.6241       11.640376
       7598.6387       11.730021
       7599.6533       11.554550
       7600.6678       11.205283
       7601.6824       9.9999951
       7602.6970       8.1999132
       7603.7115       9.0817968
       7604.7261       10.057994
       7605.7407       11.126759
       7606.7552       11.758463
       7607.7698       14.449580
       7608.7844       15.567150
       7609.7989       14.986474
       7610.8135       13.975036
       7611.8281       13.121433
       7612.8426       12.268889
       7613.8572       11.803012
       7614.8718       11.682811
       7615.8864       11.405871
       7616.9009       10.913855
       7617.9155       10.669344
       7618.9301       10.928162
       7619.9446       11.278998
       7620.9592       11.446137
       7621.9738       12.845409
       7622.9883       13.720634
       7624.0029       13.563936
       7625.0175       12.964999
       7626.0320       12.540686
       7627.0466       12.100948
       7628.0612       11.908835
       7629.0757       11.880429
       7630.0903       10.375703
       7631.1049       7.9328840
       7632.1195       8.2610875
       7633.1340       9.2189651
       7634.1486       10.288304
       7635.1632       12.090731
       7636.1777       14.396955
       7637.1923       16.188036
       7638.2069       15.202687
       7639.2214       14.248019
       7640.2360       13.248044
       7641.2506       11.883673
       7642.2651       11.181278
       7643.2797       11.121006
       7644.2943       10.977510
       7645.3089       10.964766
       7646.3234       11.045971
       7647.3380       11.127252
       7648.3526       11.351951
       7649.3671       11.236160
       7650.3817       10.803640
       7651.3963       10.187519
       7652.4108       10.323591
       7653.4254       10.868951
       7654.4400       11.327118
       7655.4545       12.285520
       7656.4691       12.395067
       7657.4837       12.730766
       7658.4982       12.953836
       7659.5128       12.344894
       7660.5274       12.006890
       7661.5420       11.358681
       7662.5565       10.583601
       7663.5711       9.0126826
       7664.5857       8.1754176
       7665.6002       9.9333256
       7666.6148       10.714867
       7667.6294       11.672606
       7668.6439       13.183482
       7669.6585       14.548709
       7670.6731       14.419466
       7671.6876       13.157592
       7672.7022       12.341452
       7673.7168       11.646542
       7674.7313       11.077353
       7675.7459       10.994643
       7676.7605       11.036250
       7677.7751       11.275323
       7678.7896       11.206718
       7679.8042       11.075175
       7680.8188       11.326867
       7681.8333       11.315848
       7682.8479       11.342009
       7683.8625       11.137385
       7684.8770       11.223763
       7685.8916       11.153117
       7686.9062       11.480082
       7687.9207       11.175998
       7688.9353       10.537427
       7689.9499       10.164767
       7690.9645       10.212572
       7691.9790       10.419191
       7692.9936       10.286556
       7694.0082       10.979449
       7695.0227       11.490832
       7696.0373       11.518959
       7697.0519       11.577653
       7698.0664       11.508263
       7699.0810       11.146901
       7700.0956       10.032238
       7701.1101       9.4200479
       7702.1247       10.149540
       7703.1393       10.400797
       7704.1538       10.970862
       7705.1684       12.229765
       7706.1830       13.185280
       7707.1976       13.455085
       7708.2121       12.887998
       7709.2267       12.088485
       7710.2413       11.851103
       7711.2558       11.615278
       7712.2704       11.494182
       7713.2850       11.786363
       7714.2995       11.508411
       7715.3141       11.693261
       7716.3287       11.751090
       7717.3432       11.617551
       7718.3578       11.536597
       7719.3724       11.697763
       7720.3869       11.358671
       7721.4015       11.632792
       7722.4161       11.021342
       7723.4307       11.381734
       7724.4452       11.440641
       7725.4598       11.354040
       7726.4744       11.360676
       7727.4889       11.299026
       7728.5035       11.546651
       7729.5181       11.532724
       7730.5326       11.525041
       7731.5472       11.397166
       7732.5618       11.543657
       7733.5763       11.668523
       7734.5909       11.746398
       7735.6055       12.003333
       7736.6200       12.731435
       7737.6346       12.419248
       7738.6492       12.515030
       7739.6638       12.041913
       7740.6783       11.428986
       7741.6929       11.342462
       7742.7075       11.245438
       7743.7220       11.362111
       7744.7366       12.277303
       7745.7512       12.416231
       7746.7657       12.773203
       7747.7803       12.881453
       7748.7949       12.445159
       7749.8094       12.445366
       7750.8240       11.983877
       7751.8386       12.265058
       7752.8532       11.990132
       7753.8677       11.900537
       7754.8823       11.624705
       7755.8969       11.906289
       7756.9114       11.980363
       7757.9260       12.163822
       7758.9406       11.782742
       7759.9551       12.069430
       7760.9697       11.877588
       7761.9843       11.716786
       7762.9988       11.672336
       7764.0134       11.616600
       7765.0280       11.637359
       7766.0425       11.810114
       7767.0571       11.959655
       7768.0717       11.966256
       7769.0863       11.820224
       7770.1008       11.681736
       7771.1154       11.572448
       7772.1300       11.834179
       7773.1445       11.737419
       7774.1591       12.056675
       7775.1737       11.994159
       7776.1882       11.811510
       7777.2028       11.901847
       7778.2174       11.736280
       7779.2319       11.819607
       7780.2465       12.032258
       7781.2611       12.156317
       7782.2756       11.930789
       7783.2902       12.100474
       7784.3048       12.460038
       7785.3194       12.203913
       7786.3339       11.929724
       7787.3485       11.881153
       7788.3631       11.844913
       7789.3776       11.623828
       7790.3922       12.268263
       7791.4068       12.337451
       7792.4213       12.541640
       7793.4359       12.637643
       7794.4505       12.693052
       7795.4650       12.527012
       7796.4796       12.421335
       7797.4942       12.718161
       7798.5087       12.826535
       7799.5233       12.768430
       7800.5379       12.405208
       7801.5525       11.389476
       7802.5670       10.992756
       7803.5816       12.137128
       7804.5962       12.264512
       7805.6107       12.263540
       7806.6253       12.210761
       7807.6399       11.916342
       7808.6544       12.373581
       7809.6690       12.152124
       7810.6836       11.960792
       7811.6981       11.965697
       7812.7127       11.801774
       7813.7273       11.584555
       7814.7419       11.596447
       7815.7564       11.523638
       7816.7710       11.481937
       7817.7856       11.807924
       7818.8001       11.893843
       7819.8147       11.891475
       7820.8293       12.421828
       7821.8438       12.401202
       7822.8584       12.562723
       7823.8730       12.793067
       7824.8875       12.557298
       7825.9021       12.823629
       7826.9167       12.548423
       7827.9312       12.478459
       7828.9458       11.963318
       7829.9604       11.939999
       7830.9750       11.801643
       7831.9895       12.060293
       7833.0041       11.970403
       7834.0187       12.068165
       7835.0332       12.321434
       7836.0478       12.232654
       7837.0624       12.131723
       7838.0769       12.532884
       7839.0915       12.587144
       7840.1061       12.741721
       7841.1206       13.116733
       7842.1352       13.153805
       7843.1498       12.965971
       7844.1643       12.744401
       7845.1789       12.793428
       7846.1935       12.757591
       7847.2081       12.632298
       7848.2226       12.327249
       7849.2372       11.989778
       7850.2518       12.025665
       7851.2663       11.962577
       7852.2809       12.162693
       7853.2955       12.146610
       7854.3100       12.442399
       7855.3246       12.358467
       7856.3392       12.434980
       7857.3537       12.321027
       7858.3683       12.385439
       7859.3829       12.450087
       7860.3974       12.590016
       7861.4120       12.491346
       7862.4266       12.547127
       7863.4412       12.690069
       7864.4557       12.783704
       7865.4703       12.810452
       7866.4849       12.497318
       7867.4994       12.307467
       7868.5140       12.781407
       7869.5286       12.654063
       7870.5431       12.732319
       7871.5577       12.823420
       7872.5723       12.500489
       7873.5868       12.783115
       7874.6014       12.573685
       7875.6160       12.533941
       7876.6306       12.237971
       7877.6451       12.684006
       7878.6597       12.939299
       7879.6743       12.728928
       7880.6888       12.564307
       7881.7034       12.373798
       7882.7180       12.388403
       7883.7325       12.133152
       7884.7471       12.328649
       7885.7617       12.599242
       7886.7762       12.729568
       7887.7908       12.539056
       7888.8054       12.625116
       7889.8199       12.070839
       7890.8345       12.470227
       7891.8491       12.341765
       7892.8637       12.319391
       7893.8782       12.381117
       7894.8928       12.555447
       7895.9074       12.746568
       7896.9219       12.864713
       7897.9365       12.384056
       7898.9511       12.583748
       7899.9656       12.375130
       7900.9802       12.642643
       7901.9948       12.345481
       7903.0093       12.311476
       7904.0239       12.387499
       7905.0385       12.501029
       7906.0530       12.653559
       7907.0676       12.244880
       7908.0822       12.388909
       7909.0968       12.265397
       7910.1113       12.531972
       7911.1259       12.215695
       7912.1405       12.344966
       7913.1550       12.422223
       7914.1696       12.560569
       7915.1842       12.552980
       7916.1987       12.333186
       7917.2133       12.441753
       7918.2279       12.657575
       7919.2424       12.438800
       7920.2570       12.336754
       7921.2716       12.222079
       7922.2862       12.488162
       7923.3007       12.292537
       7924.3153       12.629047
       7925.3299       12.212145
       7926.3444       12.708822
       7927.3590       12.578942
       7928.3736       12.839996
       7929.3881       12.776342
       7930.4027       12.737495
       7931.4173       12.800586
       7932.4318       12.705550
       7933.4464       12.734347
       7934.4610       12.877418
       7935.4755       12.935900
       7936.4901       12.679332
       7937.5047       12.495617
       7938.5193       12.526316
       7939.5338       12.424970
       7940.5484       12.741953
       7941.5630       12.496882
       7942.5775       12.586532
       7943.5921       12.575713
       7944.6067       12.744953
       7945.6212       12.939966
       7946.6358       12.849227
       7947.6504       12.792640
       7948.6649       12.764260
       7949.6795       12.767035
       7950.6941       12.499770
       7951.7086       12.675804
       7952.7232       12.665721
       7953.7378       12.682961
       7954.7524       12.624619
       7955.7669       12.445238
       7956.7815       12.131953
       7957.7961       11.414059
       7958.8106       10.049285
       7959.8252       9.4005390
       7960.8398       9.7679925
       7961.8543       10.531061
       7962.8689       11.696929
       7963.8835       10.633520
       7964.8980       10.189382
       7965.9126       12.231126
       7966.9272       14.773742
       7967.9417       13.071075
       7968.9563       14.280229
       7969.9709       16.174142
       7970.9855       16.351028
       7972.0000       12.795357
       7973.0146       8.7070552
       7974.0292       7.9209514
       7975.0437       9.8425388
       7976.0583       10.816497
       7977.0729       11.834344
       7978.0874       14.630318
       7979.1020       16.375061
       7980.1166       15.544076
       7981.1311       13.662466
       7982.1457       12.104620
       7983.1603       11.240994
       7984.1749       10.646394
       7985.1894       10.242035
       7986.2040       9.5626703
       7987.2186       10.310723
       7988.2331       11.113402
       7989.2477       10.957841
       7990.2623       11.261530
       7991.2768       11.148284
       7992.2914       10.096240
       7993.3060       9.4600475
       7994.3205       9.7493634
       7995.3351       10.398149
       7996.3497       11.251052
       7997.3642       12.021748
       7998.3788       12.230435
       7999.3934       11.412196
       8000.4080       11.104322
       8001.4225       10.726598
       8002.4371       10.239902
       8003.4517       9.6551614
       8004.4662       9.5584223
       8005.4808       9.8981641
       8006.4954       10.691214
       8007.5099       11.455983
       8008.5245       11.859460
       8009.5391       11.797233
       8010.5536       11.887096
       8011.5682       11.482449
       8012.5828       11.257630
       8013.5973       10.650888
       8014.6119       10.143591
       8015.6265       9.0946027
       8016.6411       4.9215027
       8017.6556       1.0747839
       8018.6702       4.3033581
       8019.6848       9.7889170
       8020.6993       13.226567
       8021.7139       15.727704
       8022.7285       20.479511
       8023.7430       22.346530
       8024.7576       17.930870
       8025.7722       13.776162
       8026.7867       10.619255
       8027.8013       11.110551
       8028.8159       11.865094
       8029.8304       12.263638
       8030.8450       12.722496
       8031.8596       13.870186
       8032.8742       14.457972
       8033.8887       14.070132
       8034.9033       13.792706
       8035.9179       13.208040
       8036.9324       13.043304
       8037.9470       12.806252
       8038.9616       11.685537
       8039.9761       11.340181
       8040.9907       11.769582
       8042.0053       12.722666
       8043.0198       13.001456
       8044.0344       13.513072
       8045.0490       14.229433
       8046.0636       13.874919
       8047.0781       13.156894
       8048.0927       12.226523
       8049.1073       12.127916
       8050.1218       12.198496
       8051.1364       12.281507
       8052.1510       12.396866
       8053.1655       11.993998
       8054.1801       10.398106
       8055.1947       10.049521
       8056.2092       11.255351
       8057.2238       12.273676
       8058.2384       12.637516
       8059.2529       13.716212
       8060.2675       14.846032
       8061.2821       13.699256
       8062.2967       11.968348
       8063.3112       10.612798
       8064.3258       10.321157
       8065.3404       10.618495
       8066.3549       11.152909
       8067.3695       11.905056
       8068.3841       12.336989
       8069.3986       12.027728
       8070.4132       8.7741326
       8071.4278       4.5245521
       8072.4423       5.3571521
       8073.4569       8.8709472
       8074.4715       10.766940
       8075.4860       13.295456
       8076.5006       18.245276
       8077.5152       20.024460
       8078.5298       16.968490
       8079.5443       14.680913
       8080.5589       13.724666
       8081.5735       13.332511
       8082.5880       13.604640
       8083.6026       13.272214
       8084.6172       12.784561
       8085.6317       11.631244
       8086.6463       9.3611170
       8087.6609       8.6875493
       8088.6754       9.3921245
       8089.6900       10.820484
       8090.7046       10.846401
       8091.7192       12.056812
       8092.7337       14.733586
       8093.7483       14.088451
       8094.7629       12.586676
       8095.7774       12.778861
       8096.7920       12.687886
       8097.8066       12.555355
       8098.8211       12.732527
       8099.8357       12.865274
       8100.8503       12.652505
       8101.8648       8.2913459
       8102.8794       3.5882451
       8103.8940       6.8503191
       8104.9085       11.656614
       8105.9231       14.076511
       8106.9377       13.780222
       8107.9523       17.885108
       8108.9668       19.880607
       8109.9814       16.908943
       8110.9960       13.921602
       8112.0105       12.654164
       8113.0251       12.972810
       8114.0397       13.377100
       8115.0542       13.664867
       8116.0688       13.382636
       8117.0834       13.370932
       8118.0979       12.580552
       8119.1125       11.932069
       8120.1271       12.121924
       8121.1416       11.730950
       8122.1562       11.978426
       8123.1708       11.250836
       8124.1854       8.9522125
       8125.1999       8.0949785
       8126.2145       10.336917
       8127.2291       12.343881
       8128.2436       13.565770
       8129.2582       15.150190
       8130.2728       17.004633
       8131.2873       17.340423
       8132.3019       15.512410
       8133.3165       14.823675
       8134.3310       14.139690
       8135.3456       14.000770
       8136.3602       13.283922
       8137.3747       11.247754
       8138.3893       7.1886705
       8139.4039       7.9792791
       8140.4185       12.470291
       8141.4330       15.323726
       8142.4476       14.335723
       8143.4622       17.395144
       8144.4767       21.227314
       8145.4913       18.442371
       8146.5059       14.827529
       8147.5204       13.502497
       8148.5350       12.979376
       8149.5496       13.024213
       8150.5641       13.623456
       8151.5787       13.614825
       8152.5933       13.338403
       8153.6079       13.365904
       8154.6224       12.892972
       8155.6370       12.995228
       8156.6516       13.566203
       8157.6661       13.549635
       8158.6807       13.503778
       8159.6953       13.077836
       8160.7098       12.152892
       8161.7244       12.381064
       8162.7390       12.286139
       8163.7535       12.809429
       8164.7681       12.751489
       8165.7827       11.663458
       8166.7972       10.624225
       8167.8118       11.657314
       8168.8264       12.664212
       8169.8410       12.648361
       8170.8555       13.188336
       8171.8701       13.915464
       8172.8847       14.630439
       8173.8992       13.811635
       8174.9138       13.078247
       8175.9284       13.262334
       8176.9429       12.977765
       8177.9575       11.599555
       8178.9721       8.2004736
       8179.9866       8.8351361
       8181.0012       10.689154
       8182.0158       12.853808
       8183.0303       13.630619
       8184.0449       16.258361
       8185.0595       18.525770
       8186.0741       16.969231
       8187.0886       14.924521
       8188.1032       14.151926
       8189.1178       13.754133
       8190.1323       13.485709
       8191.1469       13.054902
       8192.1615       13.091075
       8193.1760       13.040522
       8194.1906       13.211453
       8195.2052       13.452499
       8196.2197       13.717245
       8197.2343       13.925533
       8198.2489       13.589612
       8199.2634       13.155864
       8200.2780       13.179233
       8201.2926       12.871096
       8202.3072       12.936316
       8203.3217       13.247110
       8204.3363       13.581077
       8205.3509       13.940945
       8206.3654       13.721393
       8207.3800       13.715632
       8208.3946       13.980205
       8209.4091       13.991085
       8210.4237       14.427197
       8211.4383       14.048052
       8212.4528       12.858090
       8213.4674       12.525927
       8214.4820       13.044504
       8215.4966       14.298515
       8216.5111       14.053052
       8217.5257       14.637737
       8218.5403       16.095161
       8219.5548       15.529363
       8220.5694       14.884621
       8221.5840       14.438035
       8222.5985       13.753354
       8223.6131       12.983991
       8224.6277       11.906765
       8225.6422       12.941517
       8226.6568       13.936862
       8227.6714       13.893885
       8228.6859       14.800928
       8229.7005       16.260580
       8230.7151       16.369416
       8231.7297       14.830134
       8232.7442       12.789154
       8233.7588       13.553165
       8234.7734       13.918640
       8235.7879       14.570744
       8236.8025       16.021231
       8237.8171       15.612349
       8238.8316       14.973288
       8239.8462       14.083920
       8240.8608       13.488419
       8241.8753       14.024203
       8242.8899       14.191070
       8243.9045       14.275889
       8244.9190       14.308779
       8245.9336       13.969991
       8246.9482       13.733921
       8247.9628       13.801205
       8248.9773       13.668994
       8249.9919       13.990776
       8251.0065       13.657188
       8252.0210       13.967054
       8253.0356       14.073846
       8254.0502       14.369303
       8255.0647       14.736507
       8256.0793       14.354450
       8257.0939       14.429416
       8258.1084       13.910308
       8259.1230       14.362817
       8260.1376       14.005442
       8261.1521       13.973931
       8262.1667       13.915858
       8263.1813       13.462372
       8264.1959       12.722168
       8265.2104       12.481234
       8266.2250       13.654382
       8267.2396       13.668249
       8268.2541       14.069709
       8269.2687       14.288034
       8270.2833       15.810115
       8271.2978       15.792086
       8272.3124       14.569220
       8273.3270       14.055927
       8274.3415       12.824841
       8275.3561       12.168622
       8276.3707       12.660558
       8277.3853       14.050523
       8278.3998       15.160730
       8279.4144       16.049192
       8280.4290       16.847367
       8281.4435       17.345020
       8282.4581       15.608461
       8283.4727       14.354278
       8284.4872       14.671773
       8285.5018       15.116298
       8286.5164       15.154855
       8287.5309       14.957908
       8288.5455       15.518362
       8289.5601       13.884426
       8290.5746       11.132551
       8291.5892       12.936313
       8292.6038       14.393513
       8293.6184       15.244397
       8294.6329       16.112018
       8295.6475       17.705037
       8296.6621       17.569959
       8297.6766       15.506103
       8298.6912       14.457423
       8299.7058       13.512661
       8300.7203       12.851300
       8301.7349       13.384399
       8302.7495       14.055509
       8303.7640       14.157240
       8304.7786       14.382208
       8305.7932       14.294662
       8306.8077       13.717908
       8307.8223       10.283738
       8308.8369       12.122004
       8309.8515       13.903270
       8310.8660       15.431265
       8311.8806       15.030828
       8312.8952       17.428564
       8313.9097       18.604427
       8314.9243       15.659650
       8315.9389       14.241148
       8316.9534       14.142816
       8317.9680       14.064929
       8318.9826       13.755701
       8319.9971       13.692346
       8321.0117       13.307568
       8322.0263       12.777027
       8323.0409       11.880241
       8324.0554       13.000969
       8325.0700       13.892096
       8326.0846       15.021626
       8327.0991       14.734094
       8328.1137       14.917028
       8329.1283       14.896796
       8330.1428       13.670900
       8331.1574       13.664428
       8332.1720       13.583750
       8333.1865       13.805849
       8334.2011       14.043331
       8335.2157       14.638589
       8336.2302       14.281393
       8337.2448       14.033610
       8338.2594       13.743647
       8339.2740       13.626796
       8340.2885       13.795809
       8341.3031       13.844250
       8342.3177       13.701489
       8343.3322       13.798806
       8344.3468       13.675891
       8345.3614       13.555604
       8346.3759       13.511968
       8347.3905       13.534147
       8348.4051       13.524289
       8349.4196       13.598160
       8350.4342       13.083837
       8351.4488       13.247701
       8352.4633       13.496706
       8353.4779       13.412582
       8354.4925       13.439858
       8355.5071       13.757709
       8356.5216       13.181037
       8357.5362       13.269541
       8358.5508       13.169095
       8359.5653       13.510648
       8360.5799       13.538512
       8361.5945       13.708806
       8362.6090       13.433036
       8363.6236       13.633664
       8364.6382       13.680324
       8365.6527       13.252728
       8366.6673       9.6169405
       8367.6819       3.8987224
       8368.6964       6.1190793
       8369.7110       13.872522
       8370.7256       16.437798
       8371.7402       17.170615
       8372.7547       21.394466
       8373.7693       25.988300
       8374.7839       17.533419
       8375.7984       12.206903
       8376.8130       14.856401
       8377.8276       14.977897
       8378.8421       14.619359
       8379.8567       15.378260
       8380.8713       17.898607
       8381.8858       16.439814
       8382.9004       14.658182
       8383.9150       14.308487
       8384.9296       13.346002
       8385.9441       13.419603
       8386.9587       14.397048
       8387.9733       14.296710
       8388.9878       14.262193
       8390.0024       14.601094
       8391.0170       14.673270
       8392.0315       14.833872
       8393.0461       14.419485
       8394.0607       14.225391
       8395.0752       14.505504
       8396.0898       14.148815
       8397.1044       13.695250
       8398.1189       13.234081
       8399.1335       13.277060
       8400.1481       13.141244
       8401.1627       12.937006
       8402.1772       13.087946
       8403.1918       13.192273
       8404.2064       13.583451
       8405.2209       13.704891
       8406.2355       13.448041
       8407.2501       13.250377
       8408.2646       13.104866
       8409.2792       12.980307
       8410.2938       13.311582
       8411.3083       13.245930
       8412.3229       13.533458
       8413.3375       13.269949
       8414.3520       13.222051
       8415.3666       12.195545
       8416.3812       10.283454
       8417.3958       12.256488
       8418.4103       13.387758
       8419.4249       14.380143
       8420.4395       14.085567
       8421.4540       15.708256
       8422.4686       16.112820
       8423.4832       14.553924
       8424.4977       13.865378
       8425.5123       13.353837
       8426.5269       12.870717
       8427.5414       13.286435
       8428.5560       13.141865
       8429.5706       13.093447
       8430.5851       13.154972
       8431.5997       13.058472
       8432.6143       13.039912
       8433.6289       13.127703
       8434.6434       11.868181
       8435.6580       6.7661906
       8436.6726       4.1729715
       8437.6871       11.905276
       8438.7017       14.669387
       8439.7163       14.347279
       8440.7308       17.549701
       8441.7454       22.787950
       8442.7600       20.372343
       8443.7745       14.919335
       8444.7891       13.277928
       8445.8037       12.993492
       8446.8183       13.235824
       8447.8328       13.100769
       8448.8474       12.663482
       8449.8620       12.918547
       8450.8765       13.155282
       8451.8911       13.133286
       8452.9057       13.353998
       8453.9202       12.929057
       8454.9348       10.121756
       8455.9494       9.9948318
       8456.9639       12.239482
       8457.9785       12.994821
       8458.9931       12.986997
       8460.0076       14.686095
       8461.0222       16.082451
       8462.0368       14.532647
       8463.0514       12.622765
       8464.0659       11.977560
       8465.0805       11.698296
       8466.0951       11.902113
       8467.1096       11.534033
       8468.1242       11.820874
       8469.1388       11.733888
       8470.1533       11.357980
       8471.1679       7.9214979
       8472.1825       2.7732883
       8473.1970       8.4325618
       8474.2116       13.948268
       8475.2262       14.737943
       8476.2407       16.655897
       8477.2553       21.823978
       8478.2699       22.493044
       8479.2845       15.746818
       8480.2990       13.415573
       8481.3136       12.531214
       8482.3282       12.587784
       8483.3427       12.583627
       8484.3573       12.529178
       8485.3719       12.883410
       8486.3864       12.256543
       8487.4010       12.461760
       8488.4156       12.116614
       8489.4301       11.921743
       8490.4447       11.728946
       8491.4593       12.315096
       8492.4739       12.463725
       8493.4884       11.546476
       8494.5030       8.9479916
       8495.5176       8.9237329
       8496.5321       10.924105
       8497.5467       9.3592592
       8498.5613       7.5953614
       8499.5758       8.4670601
       8500.5904       15.672928
       8501.6050       17.121210
       8502.6195       15.030768
