# wavelength flux
       2355.9278     0.044275845
       2356.7175     0.030967473
       2357.5071    -0.099098130
       2358.2967   -0.0011810773
       2359.0863     0.027113618
       2359.8760     0.094302417
       2360.6656    -0.057667110
       2361.4552     0.099158005
       2362.2448    -0.034247795
       2363.0344    -0.051071241
       2363.8241     0.029841091
       2364.6137     0.052294509
       2365.4033    -0.031507690
       2366.1929     0.032454728
       2366.9826    -0.030150342
       2367.7722   -0.0053838740
       2368.5618    -0.010633737
       2369.3514    -0.024408000
       2370.1410     0.052390592
       2370.9307    -0.017004938
       2371.7203    -0.045898496
       2372.5099    -0.015286685
       2373.2995    -0.053035290
       2374.0892     0.058022109
       2374.8788    -0.021588055
       2375.6684     0.030148644
       2376.4580     0.042092832
       2377.2477     0.060300476
       2378.0373      0.12080197
       2378.8269    -0.043150482
       2379.6165    -0.022303225
       2380.4061    -0.019525346
       2381.1958     0.035505589
       2381.9854    -0.032847161
       2382.7750    -0.019176479
       2383.5646     0.017101134
       2384.3543    0.0039908391
       2385.1439      0.10236000
       2385.9335     0.093442703
       2386.7231    -0.034870793
       2387.5127      0.13733984
       2388.3024     0.071533259
       2389.0920    -0.018138152
       2389.8816     0.033415800
       2390.6712     0.074242907
       2391.4609    -0.031941013
       2392.2505     0.022052297
       2393.0401    -0.080263269
       2393.8297    -0.020250613
       2394.6194      0.13123912
       2395.4090     0.024441260
       2396.1986    -0.038524383
       2396.9882    -0.075692033
       2397.7778    0.0049002325
       2398.5675    0.0062238413
       2399.3571     0.049039520
       2400.1467     0.095175372
       2400.9363     0.043007692
       2401.7260     0.081237875
       2402.5156    -0.044424918
       2403.3052    -0.037264577
       2404.0948    -0.033047072
       2404.8844    -0.050285949
       2405.6741    -0.038061572
       2406.4637     0.042397886
       2407.2533    -0.025073850
       2408.0429     0.023192780
       2408.8326    -0.051258112
       2409.6222    -0.060326815
       2410.4118     0.097644840
       2411.2014     0.010382135
       2411.9911    -0.081600515
       2412.7807    0.0093710883
       2413.5703   -0.0011432801
       2414.3599     0.059051985
       2415.1495    -0.014332013
       2415.9392     0.047986368
       2416.7288    -0.018062505
       2417.5184    -0.057247901
       2418.3080   0.00095040473
       2419.0977     0.010175023
       2419.8873     0.041919743
       2420.6769     -0.11573513
       2421.4665     0.051112344
       2422.2561    0.0025823670
       2423.0458    -0.011255915
       2423.8354     0.029843734
       2424.6250     0.010369224
       2425.4146     0.069311038
       2426.2043    -0.010712109
       2426.9939     0.052276391
       2427.7835     0.020634995
       2428.5731    -0.025780552
       2429.3628      0.11626089
       2430.1524     0.063866590
       2430.9420    0.0018499329
       2431.7316     0.089274091
       2432.5212    -0.022537846
       2433.3109    -0.058796124
       2434.1005     0.018417738
       2434.8901     0.015401271
       2435.6797     0.096404375
       2436.4694    -0.012820355
       2437.2590     0.069561955
       2438.0486    -0.036928782
       2438.8382     0.031689885
       2439.6278    -0.019873898
       2440.4175     0.067114930
       2441.2071     0.024094969
       2441.9967    -0.018547907
       2442.7863     0.044901962
       2443.5760     0.064204907
       2444.3656    -0.014995489
       2445.1552    0.0059460337
       2445.9448      0.11178086
       2446.7345     0.019957847
       2447.5241      0.12975995
       2448.3137    -0.015324830
       2449.1033     0.029403740
       2449.8929     0.024545299
       2450.6826   -0.0047893294
       2451.4722   -0.0097382759
       2452.2618    0.0054142891
       2453.0514     0.024901537
       2453.8411      0.12700598
       2454.6307     0.070219488
       2455.4203     0.064534326
       2456.2099     0.010455808
       2456.9995     0.017051612
       2457.7892     0.037290144
       2458.5788     0.025115559
       2459.3684    0.0038385941
       2460.1580     0.029957994
       2460.9477     0.022290055
       2461.7373    -0.021596663
       2462.5269   -0.0040685233
       2463.3165     0.047831892
       2464.1062   -0.0074790329
       2464.8958     0.025755948
       2465.6854     0.057394596
       2466.4750    -0.019174086
       2467.2646     0.044472013
       2468.0543     0.035883818
       2468.8439     0.011834511
       2469.6335     0.016830589
       2470.4231     0.037221238
       2471.2128    0.0051590768
       2472.0024     0.036590158
       2472.7920    0.0040412732
       2473.5816     0.048986630
       2474.3712    -0.011705808
       2475.1609    0.0023519406
       2475.9505    -0.010444854
       2476.7401     0.014903312
       2477.5297     0.022068006
       2478.3194     0.030351633
       2479.1090    0.0053801162
       2479.8986     0.013539329
       2480.6882    0.0036265930
       2481.4779     0.014125797
       2482.2675   -0.0011268641
       2483.0571    -0.011697217
       2483.8467    0.0061781439
       2484.6363   -0.0032637103
       2485.4260    0.0075649874
       2486.2156     0.018248148
       2487.0052    -0.011820558
       2487.7948     0.015317499
       2488.5845   -0.0052987915
       2489.3741     0.063714913
       2490.1637     0.015251200
       2490.9533     0.058913109
       2491.7429     0.030929319
       2492.5326     0.062218179
       2493.3222   -0.0058678362
       2494.1118    -0.021098558
       2494.9014     0.072301584
       2495.6911     0.055556165
       2496.4807    0.0079150509
       2497.2703     0.040052461
       2498.0599     0.012189616
       2498.8496     0.020218038
       2499.6392    -0.033040212
       2500.4288   0.00026717306
       2501.2184   -0.0012638058
       2502.0080   -0.0065285802
       2502.7977     0.029375445
       2503.5873     0.067785880
       2504.3769     0.034343056
       2505.1665     0.051677513
       2505.9562     0.024411931
       2506.7458     0.051733292
       2507.5354    -0.011626183
       2508.3250    0.0071384115
       2509.1146     0.040159695
       2509.9043     0.041153571
       2510.6939     0.059645803
       2511.4835     0.022850446
       2512.2731   -0.0018233807
       2513.0628     0.019658061
       2513.8524    -0.012400337
       2514.6420    -0.021419925
       2515.4316     0.025008985
       2516.2213    0.0058410027
       2517.0109    -0.019611796
       2517.8005     0.038887118
       2518.5901     0.023802938
       2519.3797     0.033526050
       2520.1694    -0.016926371
       2520.9590    -0.023775055
       2521.7486    -0.022760330
       2522.5382     0.013343412
       2523.3279    0.0022265796
       2524.1175    -0.057332039
       2524.9071     0.030651597
       2525.6967     0.037174453
       2526.4863   -0.0083882838
       2527.2760     0.052184208
       2528.0656     0.048239027
       2528.8552     0.080906648
       2529.6448     0.060033689
       2530.4345   0.00073936890
       2531.2241    -0.018211469
       2532.0137     0.025255152
       2532.8033    0.0088807114
       2533.5930     0.094709458
       2534.3826    -0.041990317
       2535.1722   -0.0012669999
       2535.9618    -0.038735458
       2536.7514    -0.013892014
       2537.5411    0.0011409762
       2538.3307    -0.034081500
       2539.1203     0.050066893
       2539.9099    -0.044743904
       2540.6996     0.036805942
       2541.4892     0.052447765
       2542.2788     0.048301254
       2543.0684     0.010526976
       2543.8580    -0.028022896
       2544.6477   -0.0098376068
       2545.4373     0.034433966
       2546.2269     0.083016196
       2547.0165     0.041729718
       2547.8062     0.012643460
       2548.5958     0.017417173
       2549.3854     0.079188817
       2550.1750   -0.0069105804
       2550.9647    0.0026630075
       2551.7543     0.017647000
       2552.5439    -0.018776211
       2553.3335    0.0025093133
       2554.1231     0.030124479
       2554.9128     0.027055105
       2555.7024     0.081562983
       2556.4920     0.034202255
       2557.2816     0.045089222
       2558.0713   -0.0088433602
       2558.8609   -0.0042743541
       2559.6505     0.040527278
       2560.4401     0.019403494
       2561.2297     0.038510327
       2562.0194    0.0038787654
       2562.8090     0.018609315
       2563.5986   -0.0088999813
       2564.3882     0.047570975
       2565.1779     0.029980681
       2565.9675    0.0038230576
       2566.7571    0.0075394634
       2567.5467     0.019501248
       2568.3364     0.098068898
       2569.1260     0.018366601
       2569.9156   -0.0094094449
       2570.7052    -0.024589650
       2571.4948   -0.0016384014
       2572.2845    -0.021276916
       2573.0741     0.017720276
       2573.8637    -0.031102700
       2574.6533    0.0075755668
       2575.4430     0.023676791
       2576.2326   -0.0010508465
       2577.0222    -0.012151216
       2577.8118    0.0056047776
       2578.6014     0.013881091
       2579.3911     0.013142017
       2580.1807     0.010780912
       2580.9703    -0.010244133
       2581.7599    -0.041745579
       2582.5496   -0.0036743707
       2583.3392     0.056954108
       2584.1288     0.025353416
       2584.9184    -0.010357868
       2585.7081     0.055164560
       2586.4977     0.051297592
       2587.2873    -0.051759237
       2588.0769    0.0045404015
       2588.8665     0.021609662
       2589.6562     0.020506565
       2590.4458     0.063094926
       2591.2354     0.030827372
       2592.0250     0.023837080
       2592.8147     0.024428636
       2593.6043     0.045586975
       2594.3939     0.066887325
       2595.1835     0.033649428
       2595.9731    -0.010061472
       2596.7628     0.044989501
       2597.5524     0.035440580
       2598.3420     0.021312640
       2599.1316     0.031898133
       2599.9213     0.024190151
       2600.7109     0.049430377
       2601.5005     0.064236577
       2602.2901     0.050018836
       2603.0798     0.029298484
       2603.8694     0.056930276
       2604.6590    0.0035174130
       2605.4486    -0.020528764
       2606.2382     0.040893412
       2607.0279     0.087362042
       2607.8175     0.014383143
       2608.6071     0.023255388
       2609.3967    -0.012553675
       2610.1864   -0.0058561075
       2610.9760     0.013653711
       2611.7656     0.025398643
       2612.5552     0.012334735
       2613.3448     0.020139405
       2614.1345    0.0067102783
       2614.9241     0.047548107
       2615.7137    -0.018982744
       2616.5033     0.058205484
       2617.2930    -0.014250469
       2618.0826     0.055427305
       2618.8722     0.053519418
       2619.6618    -0.022622656
       2620.4515     0.028781836
       2621.2411     0.050602744
       2622.0307   -0.0025802282
       2622.8203    -0.037617200
       2623.6099     0.022581759
       2624.3996     0.048703422
       2625.1892     0.021171552
       2625.9788     0.021761515
       2626.7684    0.0075323755
       2627.5581   0.00066512455
       2628.3477    -0.013786640
       2629.1373     0.060039659
       2629.9269  -1.9990893e-05
       2630.7165     0.015337164
       2631.5062     0.038602482
       2632.2958     0.050119522
       2633.0854     0.029870166
       2633.8750     0.029236046
       2634.6647   -0.0044242991
       2635.4543     0.027483242
       2636.2439     0.028812275
       2637.0335     0.031824394
       2637.8231     0.042529042
       2638.6128   0.00059796558
       2639.4024     0.032524744
       2640.1920     0.037781503
       2640.9816     0.033364031
       2641.7713    -0.012271217
       2642.5609    -0.013334552
       2643.3505    -0.027747107
       2644.1401     0.016770037
       2644.9298     0.035073880
       2645.7194   0.00018927324
       2646.5090     0.050227167
       2647.2986     0.061900537
       2648.0882     0.012037233
       2648.8779    0.0087793236
       2649.6675     0.030358012
       2650.4571     0.047045371
       2651.2467    0.0054564035
       2652.0364    -0.013035847
       2652.8260     0.042088040
       2653.6156     0.024205176
       2654.4052     0.030638221
       2655.1948     0.046758027
       2655.9845     0.030514943
       2656.7741    0.0046956714
       2657.5637    0.0056260362
       2658.3533    -0.014399750
       2659.1430   -0.0067264657
       2659.9326     0.032157738
       2660.7222    -0.010725659
       2661.5118     0.023990786
       2662.3015     0.026644722
       2663.0911     0.035890265
       2663.8807     0.033042993
       2664.6703    -0.021187258
       2665.4599     0.021515039
       2666.2496     0.028342835
       2667.0392     0.055078154
       2667.8288    0.0072151549
       2668.6184     0.028327861
       2669.4081     0.035287220
       2670.1977     0.021290482
       2670.9873     0.041096347
       2671.7769     0.039830098
       2672.5665     0.041611447
       2673.3562     0.016106191
       2674.1458     0.054321179
       2674.9354     0.063996186
       2675.7250     0.059124289
       2676.5147     0.046565690
       2677.3043     0.039563476
       2678.0939     0.027168447
       2678.8835     0.011332277
       2679.6732    0.0013357463
       2680.4628     0.051563524
       2681.2524     0.061673426
       2682.0420     0.017827259
       2682.8316    0.0096934380
       2683.6213     0.034332706
       2684.4109     0.061792289
       2685.2005     0.069981749
       2685.9901    0.0034799052
       2686.7798     0.071139566
       2687.5694     0.022496767
       2688.3590    -0.022993119
       2689.1486     0.050537629
       2689.9382     0.081501956
       2690.7279     0.054588215
       2691.5175     0.017379550
       2692.3071     0.087831256
       2693.0967     0.070373178
       2693.8864     0.031342132
       2694.6760     0.034859856
       2695.4656    -0.027695756
       2696.2552     0.074535417
       2697.0449   -0.0062685661
       2697.8345  -0.00074998952
       2698.6241     0.032912935
       2699.4137     0.032690668
       2700.2033      0.10203777
       2700.9930     0.054661153
       2701.7826     0.025104266
       2702.5722     0.037533775
       2703.3618     0.025853906
       2704.1515    0.0068473318
       2704.9411     0.011105221
       2705.7307    -0.017260750
       2706.5203     0.032520074
       2707.3099     0.036483124
       2708.0996     0.072318973
       2708.8892     0.020085090
       2709.6788    0.0023047847
       2710.4684     0.041086441
       2711.2581    0.0037983403
       2712.0477     0.019974084
       2712.8373     0.093336708
       2713.6269     0.028265771
       2714.4166     0.037470946
       2715.2062     0.020556092
       2715.9958     0.017746424
       2716.7854    -0.035730538
       2717.5750     0.021953709
       2718.3647    0.0094423041
       2719.1543    -0.011729421
       2719.9439     0.044944214
       2720.7335     0.015641773
       2721.5232     0.036062553
       2722.3128     0.060220772
       2723.1024     0.020806404
       2723.8920   -0.0039685268
       2724.6816     0.052254497
       2725.4713     0.059758095
       2726.2609     0.071670870
       2727.0505     0.013342208
       2727.8401     0.015799843
       2728.6298     0.021759440
       2729.4194     0.039555457
       2730.2090     0.061663574
       2730.9986     0.040471297
       2731.7883     0.017574126
       2732.5779     0.017605094
       2733.3675     0.030420500
       2734.1571     0.052686765
       2734.9467   -0.0068255791
       2735.7364     0.027790331
       2736.5260     0.011256060
       2737.3156    0.0049801361
       2738.1052     0.086904138
       2738.8949     0.052210882
       2739.6845     0.035330641
       2740.4741     0.054181471
       2741.2637     0.017750046
       2742.0533     0.023240623
       2742.8430     0.025781004
       2743.6326     0.042176125
       2744.4222     0.059012885
       2745.2118     0.046152352
       2746.0015     0.020112882
       2746.7911     0.013263647
       2747.5807     0.055365618
       2748.3703     0.065485065
       2749.1600     0.054899598
       2749.9496     0.045942382
       2750.7392     0.041863297
       2751.5288     0.012181101
       2752.3184     0.017158389
       2753.1081     0.059725224
       2753.8977     0.038599598
       2754.6873   -0.0070859482
       2755.4769     0.037601158
       2756.2666     0.069886068
       2757.0562      0.10048838
       2757.8458     0.055289666
       2758.6354     0.038476323
       2759.4250     0.043356031
       2760.2147     0.035856483
       2761.0043     0.055119211
       2761.7939     0.050171833
       2762.5835    -0.031293498
       2763.3732    -0.010926977
       2764.1628     0.020463791
       2764.9524   -0.0023083778
       2765.7420     0.049514560
       2766.5317     0.046980155
       2767.3213     0.080791554
       2768.1109     0.049441565
       2768.9005     0.012066179
       2769.6901     0.073826512
       2770.4798    -0.020812713
       2771.2694     0.025568781
       2772.0590     0.079222571
       2772.8486     0.010211411
       2773.6383     0.016430370
       2774.4279    0.0054391748
       2775.2175     0.020265808
       2776.0071     0.025710378
       2776.7967    -0.024833149
       2777.5864     0.012995764
       2778.3760     0.026810565
       2779.1656     0.028083992
       2779.9552     0.036309149
       2780.7449    0.0087267576
       2781.5345     0.032211034
       2782.3241     0.043599984
       2783.1137     0.024275998
       2783.9034     0.044162484
       2784.6930    0.0033707535
       2785.4826     0.020832699
       2786.2722    0.0079937139
       2787.0618     0.044010555
       2787.8515     0.045940101
       2788.6411     0.027903408
       2789.4307     0.021536320
       2790.2203     0.013880420
       2791.0100     0.044928712
       2791.7996     0.025796629
       2792.5892     0.071183280
       2793.3788     0.044028185
       2794.1684  -0.00039150839
       2794.9581     0.015929404
       2795.7477     0.024780795
       2796.5373     0.066960557
       2797.3269    0.0019103169
       2798.1166     0.022311695
       2798.9062     0.013266252
       2799.6958    -0.011325423
       2800.4854   -0.0097927060
       2801.2751    0.0054209015
       2802.0647     0.031680797
       2802.8543    -0.017800886
       2803.6439     0.024096993
       2804.4335     0.018032719
       2805.2232     0.020255040
       2806.0128   -0.0031625688
       2806.8024     0.023696229
       2807.5920   -0.0040861030
       2808.3817     0.036481743
       2809.1713     0.046038192
       2809.9609   -0.0060206480
       2810.7505     0.045154109
       2811.5401     0.074829473
       2812.3298     0.047138145
       2813.1194     0.044582498
       2813.9090     0.033746084
       2814.6986     0.037357201
       2815.4883     0.024349511
       2816.2779    -0.028127531
       2817.0675     0.030950036
       2817.8571     0.021847702
       2818.6468     0.037952928
       2819.4364     0.038327554
       2820.2260     0.036287219
       2821.0156     0.022768253
       2821.8052     0.056317054
       2822.5949     0.015333501
       2823.3845     0.028006901
       2824.1741     0.018742985
       2824.9637     0.025196677
       2825.7534   -0.0030054382
       2826.5430     0.038296175
       2827.3326     0.044606213
       2828.1222     0.064470222
       2828.9118     0.062657079
       2829.7015     0.047052083
       2830.4911     0.048855887
       2831.2807     0.038595034
       2832.0703    0.0054861106
       2832.8600     0.026696149
       2833.6496     0.032155904
       2834.4392     0.056146474
       2835.2288     0.042380846
       2836.0185     0.011258202
       2836.8081   -0.0082456443
       2837.5977     0.043074634
       2838.3873     0.057711884
       2839.1769     0.047233978
       2839.9666     0.012497332
       2840.7562     0.060020938
       2841.5458     0.054983377
       2842.3354     0.061022476
       2843.1251     0.083441011
       2843.9147     0.025576304
       2844.7043     0.023533248
       2845.4939     0.055132273
       2846.2835     0.040921018
       2847.0732     0.033048569
       2847.8628    0.0014776408
       2848.6524     0.020811185
       2849.4420     0.066933847
       2850.2317     0.052906056
       2851.0213     0.039653096
       2851.8109     0.034274280
       2852.6005     0.033510803
       2853.3902     0.028641158
       2854.1798     0.046624169
       2854.9694     0.032744791
       2855.7590     0.022976296
       2856.5486     0.032159459
       2857.3383     0.037513417
       2858.1279     0.047450124
       2858.9175     0.024983936
       2859.7071    0.0035754506
       2860.4968     0.040463526
       2861.2864     0.010826439
       2862.0760     0.035083103
       2862.8656     0.024042917
       2863.6552     0.030813697
       2864.4449     0.050433116
       2865.2345     0.036806005
       2866.0241     0.023605907
       2866.8137     0.044730719
       2867.6034     0.032461272
       2868.3930     0.049848816
       2869.1826     0.050612018
       2869.9722     0.027445326
       2870.7619     0.039076097
       2871.5515     0.030476708
       2872.3411     0.038396120
       2873.1307     0.064492243
       2873.9203     0.036291112
       2874.7100     0.028311169
       2875.4996     0.024179631
       2876.2892     0.040051158
       2877.0788     0.065330516
       2877.8685     0.065359377
       2878.6581     0.022876262
       2879.4477     0.051166871
       2880.2373     0.037459331
       2881.0269     0.025477617
       2881.8166     0.049499094
       2882.6062     0.045249612
       2883.3958     0.022959477
       2884.1854     0.045557085
       2884.9751     0.043363159
       2885.7647     0.030528816
       2886.5543     0.059444593
       2887.3439   0.00074377107
       2888.1336     0.036697364
       2888.9232     0.065839871
       2889.7128     0.036763717
       2890.5024     0.041350522
       2891.2920     0.059563737
       2892.0817     0.023690916
       2892.8713     0.048920851
       2893.6609     0.049193980
       2894.4505     0.044454946
       2895.2402     0.042887017
       2896.0298     0.072583691
       2896.8194     0.027939487
       2897.6090     0.036753848
       2898.3986     0.054690434
       2899.1883     0.045186412
       2899.9779     0.033494577
       2900.7675     0.065876748
       2901.5571     0.041811120
       2902.3468     0.055033183
       2903.1364     0.028690672
       2903.9260     0.028322036
       2904.7156     0.061004288
       2905.5053     0.050809557
       2906.2949     0.023451357
       2907.0845     0.057423505
       2907.8741     0.063467483
       2908.6637     0.047085456
       2909.4534     0.033051069
       2910.2430     0.068325127
       2911.0326     0.026551207
       2911.8222     0.052041866
       2912.6119     0.043899645
       2913.4015     0.032442552
       2914.1911     0.046513822
       2914.9807     0.047720386
       2915.7703     0.044253247
       2916.5600     0.041599411
       2917.3496     0.055644991
       2918.1392     0.046041816
       2918.9288     0.047456008
       2919.7185     0.056349750
       2920.5081     0.043121585
       2921.2977     0.070028041
       2922.0873     0.082878234
       2922.8770     0.050113597
       2923.6666     0.081582670
       2924.4562     0.038647145
       2925.2458     0.038775349
       2926.0354     0.053189896
       2926.8251     0.048108826
       2927.6147     0.026460912
       2928.4043    0.0028002291
       2929.1939     0.013329539
       2929.9836     0.027884485
       2930.7732    0.0032231511
       2931.5628     0.046881284
       2932.3524     0.030321641
       2933.1420     0.061541500
       2933.9317     0.042429228
       2934.7213     0.076672970
       2935.5109     0.035673304
       2936.3005     0.070800095
       2937.0902     0.028235446
       2937.8798     0.020025198
       2938.6694     0.053480630
       2939.4590     0.038816780
       2940.2487     0.035601002
       2941.0383     0.042689903
       2941.8279     0.043352072
       2942.6175     0.026589464
       2943.4071     0.048636499
       2944.1968     0.066136357
       2944.9864     0.063241856
       2945.7760     0.054869895
       2946.5656     0.083371930
       2947.3553     0.020568177
       2948.1449     0.016099671
       2948.9345     0.038459072
       2949.7241     0.058974255
       2950.5137     0.054774204
       2951.3034  -0.00021324570
       2952.0930     0.044842279
       2952.8826     0.060440345
       2953.6722     0.073907205
       2954.4619     0.052634670
       2955.2515     0.045871592
       2956.0411     0.023942505
       2956.8307     0.054605067
       2957.6204     0.070562038
       2958.4100     0.044456239
       2959.1996     0.055605272
       2959.9892     0.045431661
       2960.7788    0.0091310292
       2961.5685     0.018245188
       2962.3581    0.0095480216
       2963.1477     0.039799294
       2963.9373     0.052120854
       2964.7270     0.015662860
       2965.5166     0.073951220
       2966.3062     0.045528691
       2967.0958     0.051541883
       2967.8854     0.029570101
       2968.6751     0.086185731
       2969.4647     0.063782951
       2970.2543     0.036412549
       2971.0439     0.067202838
       2971.8336     0.047823357
       2972.6232     0.020958773
       2973.4128     0.036571805
       2974.2024     0.045547688
       2974.9921     0.043946425
       2975.7817     0.049829134
       2976.5713     0.082957734
       2977.3609     0.025303384
       2978.1505     0.071001856
       2978.9402     0.064222248
       2979.7298     0.052539822
       2980.5194     0.035172257
       2981.3090     0.064258501
       2982.0987     0.077720604
       2982.8883     0.083599505
       2983.6779     0.058048678
       2984.4675     0.049007240
       2985.2571     0.046639194
       2986.0468     0.050626984
       2986.8364    0.0028650315
       2987.6260     0.040700183
       2988.4156     0.049184342
       2989.2053     0.058010544
       2989.9949     0.050713007
       2990.7845     0.079949639
       2991.5741     0.064081365
       2992.3638     0.048427732
       2993.1534     0.057222375
       2993.9430     0.037536784
       2994.7326     0.027833164
       2995.5222     0.046236092
       2996.3119    0.0096367495
       2997.1015     0.057014789
       2997.8911     0.036389252
       2998.6807      0.10360462
       2999.4704     0.069959984
       3000.2600     0.055919899
       3001.0496     0.038881279
       3001.8392     0.058776987
       3002.6288     0.099256316
       3003.4185     0.095663826
       3004.2081     0.076798596
       3004.9977     0.057525545
       3005.7873     0.045730057
       3006.5770     0.029310229
       3007.3666     0.057120329
       3008.1562     0.082836966
       3008.9458     0.060455111
       3009.7354     0.052160020
       3010.5251     0.058187875
       3011.3147     0.058344253
       3012.1043     0.067548505
       3012.8939     0.047739956
       3013.6836      0.10358747
       3014.4732     0.049301929
       3015.2628     0.039396280
       3016.0524     0.049206645
       3016.8421     0.030920649
       3017.6317     0.081984292
       3018.4213     0.051645913
       3019.2109     0.021458265
       3020.0005     0.044765011
       3020.7902     0.049863088
       3021.5798     0.056790475
       3022.3694     0.085568871
       3023.1590     0.012200354
       3023.9487     0.040870067
       3024.7383     0.027023839
       3025.5279     0.028404856
       3026.3175     0.056871071
       3027.1071     0.022768809
       3027.8968     0.040187974
       3028.6864     0.057811111
       3029.4760     0.037822030
       3030.2656     0.059587175
       3031.0553     0.059228469
       3031.8449     0.059271965
       3032.6345     0.052648257
       3033.4241     0.056389693
       3034.2138     0.039915734
       3035.0034     0.047562461
       3035.7930     0.072169211
       3036.5826      0.10745520
       3037.3722     0.052260831
       3038.1619     0.051437070
       3038.9515     0.055923434
       3039.7411     0.097277811
       3040.5307     0.057921592
       3041.3204     0.074049337
       3042.1100     0.084716076
       3042.8996     0.053814549
       3043.6892     0.044871491
       3044.4788     0.053247074
       3045.2685     0.037412698
       3046.0581     0.061106936
       3046.8477     0.035257204
       3047.6373     0.072759040
       3048.4270     0.069959996
       3049.2166     0.086184242
       3050.0062     0.061442317
       3050.7958     0.026633574
       3051.5855     0.068847075
       3052.3751      0.10153734
       3053.1647     0.082517189
       3053.9543     0.070818578
       3054.7439     0.033374713
       3055.5336     0.024735648
       3056.3232     0.073482089
       3057.1128     0.080514864
       3057.9024     0.044328323
       3058.6921     0.012503352
       3059.4817     0.076839963
       3060.2713     0.049178843
       3061.0609     0.015697519
       3061.8505     0.044166046
       3062.6402     0.040889978
       3063.4298     0.063143410
       3064.2194     0.028336407
       3065.0090     0.030051505
       3065.7987     0.038106848
       3066.5883     0.056845572
       3067.3779     0.074397915
       3068.1675     0.043630610
       3068.9572     0.024828870
       3069.7468     0.070986447
       3070.5364     0.044464119
       3071.3260     0.058044718
       3072.1156     0.040231201
       3072.9053     0.030773173
       3073.6949     0.069913436
       3074.4845     0.077153194
       3075.2741      0.10671823
       3076.0638     0.066906731
       3076.8534     0.045571007
       3077.6430     0.064196396
       3078.4326     0.061377581
       3079.2222     0.059452509
       3080.0119     0.084860654
       3080.8015      0.13380199
       3081.5911     0.047799166
       3082.3807     0.067556266
       3083.1704     0.035258814
       3083.9600     0.041421437
       3084.7496     0.043879262
       3085.5392     0.095046884
       3086.3289     0.044201160
       3087.1185     0.099308677
       3087.9081     0.090535145
       3088.6977     0.043086206
       3089.4873     0.072949075
       3090.2770     0.073032437
       3091.0666     0.058115705
       3091.8562     0.064110224
       3092.6458     0.051183947
       3093.4355     0.070802298
       3094.2251     0.070502954
       3095.0147     0.067686697
       3095.8043     0.095459446
       3096.5939     0.081949583
       3097.3836     0.045370530
       3098.1732     0.077588205
       3098.9628     0.070832713
       3099.7524     0.065188463
       3100.5421     0.080648571
       3101.3317     0.052274154
       3102.1213     0.093026409
       3102.9109     0.021717781
       3103.7006     0.032792235
       3104.4902     0.069425694
       3105.2798     0.062258823
       3106.0694     0.067861201
       3106.8590     0.043940089
       3107.6487     0.068168757
       3108.4383     0.082104022
       3109.2279     0.059150297
       3110.0175     0.055748053
       3110.8072     0.011788770
       3111.5968     0.073828610
       3112.3864     0.065586344
       3113.1760     0.062622346
       3113.9656     0.040666032
       3114.7553     0.061418384
       3115.5449     0.078466461
       3116.3345     0.084649015
       3117.1241     0.062835673
       3117.9138      0.10775936
       3118.7034     0.085923454
       3119.4930     0.037246555
       3120.2826     0.040773031
       3121.0723     0.079942998
       3121.8619     0.059643848
       3122.6515     0.078679325
       3123.4411     0.058469447
       3124.2307     0.032132525
       3125.0204     0.045019470
       3125.8100   -0.0050226814
       3126.5996     0.075553384
       3127.3892     0.061721200
       3128.1789     0.081697894
       3128.9685     0.097919016
       3129.7581     0.097630979
       3130.5477     0.062666138
       3131.3373     0.055741183
       3132.1270     0.090279539
       3132.9166      0.10589248
       3133.7062     0.095103561
       3134.4958     0.072938591
       3135.2855     0.053864611
       3136.0751     0.061115262
       3136.8647     0.068957195
       3137.6543     0.083448738
       3138.4440     0.081826794
       3139.2336     0.073717345
       3140.0232     0.044443692
       3140.8128     0.025688090
       3141.6024     0.035543336
       3142.3921     0.058454134
       3143.1817     0.048827936
       3143.9713     0.060676553
       3144.7609     0.087952270
       3145.5506     0.046659608
       3146.3402     0.035163639
       3147.1298     0.062110573
       3147.9194     0.070050613
       3148.7090     0.062418417
       3149.4987     0.077884922
       3150.2883      0.10258544
       3151.0779      0.11386240
       3151.8675     0.048391190
       3152.6572     0.048549134
       3153.4468     0.072342911
       3154.2364     0.095163926
       3155.0260     0.072952130
       3155.8157     0.059999700
       3156.6053      0.11385066
       3157.3949     0.060739999
       3158.1845     0.076349881
       3158.9741     0.089297396
       3159.7638     0.099267051
       3160.5534     0.085350395
       3161.3430     0.061713559
       3162.1326      0.10331417
       3162.9223     0.099618922
       3163.7119     0.079024418
       3164.5015     0.063537097
       3165.2911     0.034689437
       3166.0807     0.069224741
       3166.8704     0.059723078
       3167.6600     0.049239709
       3168.4496     0.072045794
       3169.2392     0.068533599
       3170.0289     0.074290286
       3170.8185     0.041438147
       3171.6081     0.047009030
       3172.3977     0.038240765
       3173.1874     0.088982644
       3173.9770      0.10028778
       3174.7666     0.084763410
       3175.5562     0.069289730
       3176.3458     0.065237505
       3177.1355     0.058440157
       3177.9251     0.069237126
       3178.7147     0.089232846
       3179.5043      0.11268285
       3180.2940     0.099146953
       3181.0836     0.046371997
       3181.8732     0.063560083
       3182.6628     0.073366427
       3183.4524     0.067871801
       3184.2421      0.12015238
       3185.0317      0.14255953
       3185.8213     0.053290427
       3186.6109     0.055188646
       3187.4006     0.064994746
       3188.1902     0.074658002
       3188.9798      0.11105261
       3189.7694     0.066417457
       3190.5591     0.058582488
       3191.3487      0.11217816
       3192.1383     0.076307496
       3192.9279     0.057960200
       3193.7175      0.11030627
       3194.5072      0.10123210
       3195.2968     0.058358052
       3196.0864     0.044200280
       3196.8760     0.059791742
       3197.6657     0.048800110
       3198.4553     0.068016445
       3199.2449     0.077925650
       3200.0345     0.080188786
       3200.8241     0.088683628
       3201.6138      0.10057972
       3202.4034     0.095607961
       3203.1930     0.055168653
       3203.9826     0.070746794
       3204.7723     0.058105778
       3205.5619     0.091773210
       3206.3515      0.11699540
       3207.1411     0.095960097
       3207.9308     0.070675125
       3208.7204     0.075334683
       3209.5100     0.066159225
       3210.2996     0.091009020
       3211.0892     0.088432714
       3211.8789      0.10694545
       3212.6685      0.10462396
       3213.4581      0.11795855
       3214.2477     0.085809670
       3215.0374     0.078337346
       3215.8270     0.090021421
       3216.6166     0.069460750
       3217.4062     0.078087016
       3218.1958     0.065655112
       3218.9855     0.056904798
       3219.7751     0.027057912
       3220.5647      0.11884690
       3221.3543     0.075716700
       3222.1440     0.098700491
       3222.9336     0.091423651
       3223.7232      0.11722929
       3224.5128     0.098644235
       3225.3025     0.066461416
       3226.0921     0.068329021
       3226.8817     0.068243901
       3227.6713     0.086905937
       3228.4609     0.083022130
       3229.2506     0.061755424
       3230.0402     0.087215150
       3230.8298     0.070801092
       3231.6194     0.068847267
       3232.4091     0.083557846
       3233.1987     0.059034746
       3233.9883     0.085918552
       3234.7779     0.052522127
       3235.5675     0.079999781
       3236.3572     0.091360452
       3237.1468     0.089004928
       3237.9364     0.090546724
       3238.7260     0.076019175
       3239.5157     0.073676877
       3240.3053     0.088873393
       3241.0949     0.043184040
       3241.8845      0.10689572
       3242.6742     0.077909638
       3243.4638     0.050853424
       3244.2534     0.098746169
       3245.0430      0.10437306
       3245.8326     0.069890638
       3246.6223     0.085404626
       3247.4119      0.10767573
       3248.2015      0.10492399
       3248.9911     0.079637610
       3249.7808     0.048997960
       3250.5704     0.084254037
       3251.3600      0.10822644
       3252.1496      0.10525922
       3252.9392      0.11285357
       3253.7289     0.091652257
       3254.5185     0.065501329
       3255.3081      0.10698226
       3256.0977     0.074914850
       3256.8874     0.065706331
       3257.6770     0.024276579
       3258.4666     0.090599327
       3259.2562      0.13260777
       3260.0459     0.069808590
       3260.8355     0.090655532
       3261.6251     0.071267327
       3262.4147     0.096386664
       3263.2043      0.12498664
       3263.9940      0.12108664
       3264.7836      0.12584747
       3265.5732     0.090064283
       3266.3628      0.12902224
       3267.1525     0.088184806
       3267.9421      0.10967868
       3268.7317      0.12798653
       3269.5213     0.092190213
       3270.3109     0.096562717
       3271.1006     0.093040063
       3271.8902     0.094322141
       3272.6798      0.11226324
       3273.4694      0.10063708
       3274.2591     0.085124340
       3275.0487      0.10717611
       3275.8383     0.088188814
       3276.6279     0.067399434
       3277.4176     0.096134654
       3278.2072      0.10607825
       3278.9968      0.10648117
       3279.7864      0.12580535
       3280.5760      0.10266397
       3281.3657      0.11540394
       3282.1553     0.090149023
       3282.9449     0.095865318
       3283.7345      0.10730031
       3284.5242     0.074491875
       3285.3138     0.097286096
       3286.1034     0.052794070
       3286.8930      0.10629955
       3287.6826     0.094681561
       3288.4723     0.092082717
       3289.2619     0.095793973
       3290.0515     0.065316589
       3290.8411      0.11402338
       3291.6308     0.083466767
       3292.4204     0.079690323
       3293.2100     0.092969558
       3293.9996      0.10412061
       3294.7893      0.11289832
       3295.5789      0.10129159
       3296.3685      0.14960070
       3297.1581      0.11753237
       3297.9477      0.13928820
       3298.7374      0.12296769
       3299.5270     0.082540063
       3300.3166      0.11268561
       3301.1062     0.063963739
       3301.8959      0.12597641
       3302.6855      0.12920253
       3303.4751      0.12849792
       3304.2647      0.14133900
       3305.0543      0.12002476
       3305.8440      0.14790835
       3306.6336     0.093625041
       3307.4232     0.087829160
       3308.2128     0.082469942
       3309.0025     0.078922363
       3309.7921      0.13584086
       3310.5817     0.083708330
       3311.3713     0.091938907
       3312.1610     0.066266623
       3312.9506     0.044056247
       3313.7402      0.11434051
       3314.5298      0.10124527
       3315.3194     0.085557984
       3316.1091     0.075838319
       3316.8987     0.090497204
       3317.6883      0.12595921
       3318.4779     0.086268768
       3319.2676      0.13267443
       3320.0572      0.15799371
       3320.8468      0.13649846
       3321.6364      0.12805284
       3322.4260     0.083536021
       3323.2157      0.10735250
       3324.0053      0.11628714
       3324.7949     0.073914948
       3325.5845      0.12306719
       3326.3742      0.13545157
       3327.1638     0.098364285
       3327.9534      0.12269433
       3328.7430     0.069268088
       3329.5327     0.096603027
       3330.3223      0.11460733
       3331.1119     0.089258102
       3331.9015     0.095995806
       3332.6911      0.13494531
       3333.4808      0.12580552
       3334.2704      0.10186148
       3335.0600     0.065535190
       3335.8496      0.10521354
       3336.6393     0.089755336
       3337.4289     0.095002442
       3338.2185      0.14153229
       3339.0081     0.096931830
       3339.7977      0.10919980
       3340.5874     0.099578965
       3341.3770      0.10371441
       3342.1666     0.051581329
       3342.9562      0.10109018
       3343.7459     0.093455612
       3344.5355     0.092041813
       3345.3251      0.11586199
       3346.1147      0.11398489
       3346.9044      0.11073930
       3347.6940      0.10621146
       3348.4836     0.060531453
       3349.2732     0.099747337
       3350.0628     0.088069649
       3350.8525     0.085684430
       3351.6421      0.11886941
       3352.4317     0.080596174
       3353.2213     0.084678095
       3354.0110     0.098196809
       3354.8006     0.083543449
       3355.5902     0.065185879
       3356.3798     0.089318666
       3357.1694      0.10658680
       3357.9591      0.12093122
       3358.7487      0.13723268
       3359.5383      0.10947086
       3360.3279     0.099764389
       3361.1176     0.079583817
       3361.9072      0.10396478
       3362.6968      0.10427957
       3363.4864      0.10888327
       3364.2760     0.088912957
       3365.0657     0.083432879
       3365.8553      0.11041432
       3366.6449      0.12632115
       3367.4345      0.10280965
       3368.2242      0.12491431
       3369.0138      0.11130933
       3369.8034     0.089546767
       3370.5930      0.14958319
       3371.3827      0.11056318
       3372.1723     0.082493550
       3372.9619     0.080913652
       3373.7515     0.096299879
       3374.5411     0.083043132
       3375.3308     0.096027642
       3376.1204     0.094464262
       3376.9100     0.084507253
       3377.6996      0.12019654
       3378.4893     0.078397330
       3379.2789     0.082986962
       3380.0685     0.081299448
       3380.8581     0.090952341
       3381.6477      0.12627185
       3382.4374      0.11814024
       3383.2270      0.14085831
       3384.0166     0.085573783
       3384.8062     0.095440720
       3385.5959      0.10231190
       3386.3855      0.10508912
       3387.1751     0.087776757
       3387.9647     0.085976731
       3388.7544     0.092724124
       3389.5440     0.044421684
       3390.3336      0.14931330
       3391.1232     0.094813440
       3391.9128      0.11850043
       3392.7025      0.10830524
       3393.4921     0.059121386
       3394.2817     0.073118053
       3395.0713     0.090630011
       3395.8610     0.096895924
       3396.6506      0.13397613
       3397.4402      0.12655414
       3398.2298      0.13561833
       3399.0194      0.12718233
       3399.8091     0.069484506
       3400.5987     0.076906239
       3401.3883      0.12220114
       3402.1779     0.081281332
       3402.9676      0.10439861
       3403.7572      0.10851977
       3404.5468     0.095621142
       3405.3364      0.13628995
       3406.1261      0.10234476
       3406.9157      0.10272345
       3407.7053      0.11419579
       3408.4949      0.11283955
       3409.2845      0.10506930
       3410.0742      0.10214751
       3410.8638     0.099903392
       3411.6534      0.10718672
       3412.4430     0.083431436
       3413.2327      0.11902821
       3414.0223      0.12878042
       3414.8119      0.13845157
       3415.6015      0.10155379
       3416.3911      0.15847277
       3417.1808      0.11351646
       3417.9704      0.10034365
       3418.7600     0.096421733
       3419.5496      0.12478715
       3420.3393     0.097766221
       3421.1289     0.097762523
       3421.9185     0.088862964
       3422.7081     0.080367894
       3423.4978      0.10847148
       3424.2874      0.11857422
       3425.0770     0.095942459
       3425.8666      0.13094112
       3426.6562     0.093951943
       3427.4459     0.099728998
       3428.2355      0.13954470
       3429.0251      0.14127707
       3429.8147      0.10158098
       3430.6044      0.10604330
       3431.3940      0.11686809
       3432.1836     0.072954826
       3432.9732      0.13050371
       3433.7628     0.097109298
       3434.5525      0.11918314
       3435.3421      0.10995182
       3436.1317      0.12001112
       3436.9213      0.13217298
       3437.7110     0.091544382
       3438.5006      0.12155204
       3439.2902      0.10292275
       3440.0798      0.13614258
       3440.8695      0.16105662
       3441.6591      0.12057563
       3442.4487      0.11496511
       3443.2383     0.062157258
       3444.0279      0.13002513
       3444.8176      0.10146179
       3445.6072      0.13525305
       3446.3968      0.13529295
       3447.1864      0.12221821
       3447.9761     0.095470664
       3448.7657     0.055558095
       3449.5553     0.081121556
       3450.3449      0.10113456
       3451.1345      0.15147848
       3451.9242     0.099009159
       3452.7138     0.096095551
       3453.5034      0.11652872
       3454.2930      0.15183969
       3455.0827      0.11220630
       3455.8723      0.11274676
       3456.6619      0.13840498
       3457.4515      0.14649048
       3458.2412     0.059937993
       3459.0308     0.074686999
       3459.8204      0.14872382
       3460.6100      0.13677700
       3461.3996      0.12139004
       3462.1893      0.11325606
       3462.9789     0.060662057
       3463.7685      0.10313316
       3464.5581      0.14513442
       3465.3478      0.13155603
       3466.1374      0.14775135
       3466.9270      0.12693641
       3467.7166     0.096269483
       3468.5062      0.10456003
       3469.2959      0.13100636
       3470.0855     0.095584158
       3470.8751      0.11868950
       3471.6647      0.16289818
       3472.4544      0.13741787
       3473.2440      0.13277343
       3474.0336      0.15954940
       3474.8232      0.11922509
       3475.6129      0.13378092
       3476.4025     0.099316381
       3477.1921     0.067129136
       3477.9817      0.14254660
       3478.7713      0.12601796
       3479.5610      0.10047922
       3480.3506     0.094051658
       3481.1402      0.14199116
       3481.9298      0.11952541
       3482.7195     0.071254435
       3483.5091     0.091397868
       3484.2987     0.089690746
       3485.0883     0.099732659
       3485.8779     0.093009534
       3486.6676     0.063473319
       3487.4572      0.10457411
       3488.2468      0.12044959
       3489.0364      0.14075439
       3489.8261      0.10846445
       3490.6157      0.13295167
       3491.4053     0.086937592
       3492.1949      0.10530011
       3492.9846     0.093276880
       3493.7742      0.17703771
       3494.5638     0.092238963
       3495.3534      0.13966827
       3496.1430      0.10347121
       3496.9327     0.072475353
       3497.7223      0.10542417
       3498.5119      0.11719929
       3499.3015      0.11442734
       3500.0912     0.078334400
       3500.8808      0.18559035
       3501.6704      0.12372689
       3502.4600      0.10934882
       3503.2496      0.15271471
       3504.0393      0.13932414
       3504.8289      0.12951042
       3505.6185      0.15479571
       3506.4081      0.11301235
       3507.1978      0.13473952
       3507.9874      0.16139282
       3508.7770      0.11431411
       3509.5666     0.097847686
       3510.3563      0.13694916
       3511.1459      0.11895107
       3511.9355      0.12529602
       3512.7251      0.11392457
       3513.5147     0.090419493
       3514.3044      0.13242644
       3515.0940      0.11232607
       3515.8836     0.080442868
       3516.6732      0.12650266
       3517.4629      0.11942682
       3518.2525      0.11873440
       3519.0421      0.20254249
       3519.8317      0.13468695
       3520.6213      0.16413784
       3521.4110      0.11899956
       3522.2006     0.097103862
       3522.9902      0.10698197
       3523.7798      0.11189506
       3524.5695      0.12884577
       3525.3591      0.11759869
       3526.1487      0.12236516
       3526.9383      0.13197161
       3527.7280      0.11140993
       3528.5176     0.085279713
       3529.3072     0.073603847
       3530.0968      0.14028064
       3530.8864      0.15799172
       3531.6761     0.095565071
       3532.4657      0.13390688
       3533.2553      0.14352114
       3534.0449      0.12967629
       3534.8346      0.16191447
       3535.6242      0.11329572
       3536.4138      0.12939586
       3537.2034      0.14572984
       3537.9930      0.14106822
       3538.7827      0.15634804
       3539.5723      0.12938440
       3540.3619      0.14006298
       3541.1515      0.13832755
       3541.9412      0.17040066
       3542.7308      0.13269942
       3543.5204      0.12550725
       3544.3100      0.15574961
       3545.0997      0.14685856
       3545.8893      0.16238107
       3546.6789      0.12258071
       3547.4685      0.12329171
       3548.2581      0.10264787
       3549.0478      0.12685841
       3549.8374     0.094765218
       3550.6270      0.12810670
       3551.4166      0.14378786
       3552.2063      0.12595515
       3552.9959     0.098770969
       3553.7855      0.10507898
       3554.5751      0.13780866
       3555.3647     0.075905030
       3556.1544     0.098887153
       3556.9440      0.15242916
       3557.7336      0.15568815
       3558.5232      0.12368675
       3559.3129      0.18116687
       3560.1025      0.13187382
       3560.8921      0.13527937
       3561.6817      0.14516953
       3562.4714     0.074173913
       3563.2610      0.17989839
       3564.0506      0.13449928
       3564.8402      0.11366533
       3565.6298      0.11371877
       3566.4195     0.088411334
       3567.2091      0.16155107
       3567.9987      0.14287472
       3568.7883      0.13254556
       3569.5780     0.080190799
       3570.3676     0.096131304
       3571.1572      0.11694452
       3571.9468     0.068788515
       3572.7364     0.090809782
       3573.5261     0.070469811
       3574.3157      0.12990023
       3575.1053      0.15628933
       3575.8949     0.068678318
       3576.6846      0.13240538
       3577.4742      0.13070855
       3578.2638      0.12163235
       3579.0534      0.15086069
       3579.8431      0.11806534
       3580.6327      0.12230618
       3581.4223      0.13233146
       3582.2119      0.10455220
       3583.0015      0.14591531
       3583.7912      0.11718984
       3584.5808     0.083340180
       3585.3704      0.11904329
       3586.1600     0.087884579
       3586.9497      0.13585662
       3587.7393      0.12664710
       3588.5289      0.13123616
       3589.3185      0.10224461
       3590.1081      0.13300450
       3590.8978      0.13245598
       3591.6874     0.080368352
       3592.4770      0.12511748
       3593.2666      0.13757534
       3594.0563      0.16110345
       3594.8459      0.16696378
       3595.6355      0.16501755
       3596.4251     0.088972713
       3597.2148     0.092289502
       3598.0044      0.11828379
       3598.7940      0.13679117
       3599.5836      0.16254003
       3600.3732      0.14814655
       3601.1629      0.15117516
       3601.9525      0.15297596
       3602.7421      0.17789818
       3603.5317      0.11209272
       3604.3214      0.16085436
       3605.1110      0.15712852
       3605.9006      0.13656064
       3606.6902      0.11497863
       3607.4798      0.16097460
       3608.2695      0.11478936
       3609.0591      0.12155610
       3609.8487      0.13527414
       3610.6383      0.13138125
       3611.4280      0.13525097
       3612.2176     0.084965140
       3613.0072      0.12987559
       3613.7968      0.13865296
       3614.5865      0.11688134
       3615.3761      0.13336575
       3616.1657      0.14138204
       3616.9553      0.12232348
       3617.7449      0.14254981
       3618.5346     0.095811769
       3619.3242      0.12341747
       3620.1138      0.14054099
       3620.9034      0.17358533
       3621.6931      0.12727039
       3622.4827      0.11506154
       3623.2723      0.15080824
       3624.0619      0.14182528
       3624.8515      0.15184331
       3625.6412      0.14084009
       3626.4308      0.13966697
       3627.2204     0.079385311
       3628.0100      0.15129757
       3628.7997      0.12271055
       3629.5893      0.14733220
       3630.3789      0.18802934
       3631.1685      0.13676323
       3631.9582      0.14718048
       3632.7478      0.13296513
       3633.5374      0.17532572
       3634.3270      0.14571066
       3635.1166      0.15442578
       3635.9063      0.13597214
       3636.6959      0.16208871
       3637.4855      0.11738993
       3638.2751      0.12488647
       3639.0648      0.15696757
       3639.8544      0.16022972
       3640.6440      0.18314265
       3641.4336      0.15587226
       3642.2232      0.12085132
       3643.0129     0.098837596
       3643.8025      0.14505847
       3644.5921      0.15492455
       3645.3817      0.13775223
       3646.1714      0.13423401
       3646.9610      0.12578752
       3647.7506      0.11604296
       3648.5402      0.14125329
       3649.3299      0.14724937
       3650.1195      0.15251978
       3650.9091      0.11272033
       3651.6987      0.11907092
       3652.4883      0.14447307
       3653.2780      0.11848756
       3654.0676      0.12539475
       3654.8572      0.15082580
       3655.6468      0.15669949
       3656.4365      0.14056477
       3657.2261      0.14539465
       3658.0157      0.11936736
       3658.8053      0.17699118
       3659.5949      0.14514854
       3660.3846      0.16691007
       3661.1742      0.12774053
       3661.9638      0.12233970
       3662.7534      0.14284364
       3663.5431      0.18707852
       3664.3327      0.18953971
       3665.1223      0.12555571
       3665.9119      0.14891794
       3666.7016      0.19528698
       3667.4912      0.15888455
       3668.2808      0.13086422
       3669.0704      0.15088904
       3669.8600      0.14174468
       3670.6497      0.16267304
       3671.4393      0.11373526
       3672.2289      0.12897711
       3673.0185      0.17967030
       3673.8082      0.13293864
       3674.5978      0.13225844
       3675.3874      0.14135665
       3676.1770      0.12453271
       3676.9666     0.091894796
       3677.7563      0.17498207
       3678.5459      0.17037265
       3679.3355      0.18518609
       3680.1251      0.16920611
       3680.9148      0.15107544
       3681.7044      0.11796938
       3682.4940      0.15292457
       3683.2836      0.16644005
       3684.0733      0.10253691
       3684.8629      0.12596004
       3685.6525      0.18697306
       3686.4421      0.15550761
       3687.2317      0.13532085
       3688.0214      0.14752868
       3688.8110      0.14590561
       3689.6006      0.16227420
       3690.3902      0.18541874
       3691.1799      0.17214893
       3691.9695      0.13724727
       3692.7591      0.18441626
       3693.5487      0.16641007
       3694.3383      0.16949144
       3695.1280      0.12284300
       3695.9176      0.16010260
       3696.7072      0.15005877
       3697.4968      0.19207325
       3698.2865      0.20610918
       3699.0761      0.18641231
       3699.8657      0.12424403
       3700.6553      0.15802145
       3701.4450      0.15497305
       3702.2346      0.13954734
       3703.0242      0.14408783
       3703.8138      0.16432264
       3704.6034      0.16124535
       3705.3931      0.15874246
       3706.1827      0.19585562
       3706.9723      0.17399011
       3707.7619      0.14693442
       3708.5516      0.14064443
       3709.3412      0.13877574
       3710.1308      0.13399210
       3710.9204      0.16277518
       3711.7100      0.12586172
       3712.4997      0.23693668
       3713.2893      0.17216233
       3714.0789      0.18855076
       3714.8685      0.12508644
       3715.6582      0.13642213
       3716.4478      0.19712300
       3717.2374      0.17025920
       3718.0270      0.19257638
       3718.8167      0.22664737
       3719.6063      0.17024053
       3720.3959      0.23344656
       3721.1855      0.25320212
       3721.9751      0.30227108
       3722.7648      0.29514068
       3723.5544      0.35471342
       3724.3440      0.42973647
       3725.1336      0.45672637
       3725.9233      0.43440015
       3726.7129      0.44902028
       3727.5025      0.45125338
       3728.2921      0.43355365
       3729.0817      0.38455263
       3729.8714      0.42399787
       3730.6610      0.44826347
       3731.4506      0.33577536
       3732.2402      0.32435550
       3733.0299      0.27699375
       3733.8195      0.21746064
       3734.6091      0.17699185
       3735.3987      0.15453347
       3736.1883      0.19616387
       3736.9780      0.15521567
       3737.7676      0.12966710
       3738.5572      0.14157004
       3739.3468      0.13397286
       3740.1365      0.18448054
       3740.9261      0.18994753
       3741.7157      0.14842389
       3742.5053      0.22828341
       3743.2950      0.11581997
       3744.0846      0.13052844
       3744.8742      0.16384041
       3745.6638      0.18924191
       3746.4534     0.097971458
       3747.2431      0.17002588
       3748.0327      0.11487343
       3748.8223      0.13036462
       3749.6119      0.13228096
       3750.4016      0.17593533
       3751.1912      0.16825616
       3751.9808      0.18104930
       3752.7704      0.19716213
       3753.5600      0.17643668
       3754.3497      0.16361289
       3755.1393      0.21641253
       3755.9289      0.22322019
       3756.7185      0.14601149
       3757.5082      0.17269954
       3758.2978      0.16279336
       3759.0874      0.20635791
       3759.8770      0.20042425
       3760.6667      0.21549963
       3761.4563      0.22624015
       3762.2459      0.14221790
       3763.0355      0.19321024
       3763.8251      0.13873052
       3764.6148      0.17083374
       3765.4044      0.16226546
       3766.1940      0.14902673
       3766.9836      0.14656610
       3767.7733      0.16585435
       3768.5629      0.20127783
       3769.3525      0.16049627
       3770.1421      0.15331973
       3770.9317      0.19036926
       3771.7214      0.13297172
       3772.5110      0.18629302
       3773.3006      0.20653657
       3774.0902      0.19617880
       3774.8799      0.15489785
       3775.6695      0.14401726
       3776.4591      0.18160713
       3777.2487      0.18527727
       3778.0384      0.16458215
       3778.8280      0.23149367
       3779.6176      0.19912499
       3780.4072      0.21567978
       3781.1968      0.18767267
       3781.9865      0.18694103
       3782.7761      0.23169160
       3783.5657      0.28920891
       3784.3553      0.25236008
       3785.1450      0.21346309
       3785.9346      0.22235311
       3786.7242      0.20761985
       3787.5138      0.16278779
       3788.3034      0.14870665
       3789.0931      0.21019984
       3789.8827      0.22609925
       3790.6723      0.21053528
       3791.4619      0.21725535
       3792.2516      0.18042456
       3793.0412      0.13419739
       3793.8308      0.18268207
       3794.6204      0.18746522
       3795.4101      0.18267119
       3796.1997      0.16674233
       3796.9893      0.11515373
       3797.7789      0.16078331
       3798.5685      0.14891898
       3799.3582      0.12989683
       3800.1478      0.19105647
       3800.9374      0.22419492
       3801.7270      0.19968396
       3802.5167      0.21778705
       3803.3063      0.17862088
       3804.0959      0.20197365
       3804.8855      0.23666634
       3805.6751      0.20990214
       3806.4648      0.21641959
       3807.2544      0.28590485
       3808.0440      0.27078229
       3808.8336      0.25592287
       3809.6233      0.25121599
       3810.4129      0.23404414
       3811.2025      0.24052676
       3811.9921      0.26089219
       3812.7818      0.23200779
       3813.5714      0.23981234
       3814.3610      0.17038043
       3815.1506      0.19882846
       3815.9402      0.22836602
       3816.7299      0.18844965
       3817.5195      0.24022902
       3818.3091      0.24774709
       3819.0987      0.21799078
       3819.8884      0.21256347
       3820.6780      0.20500323
       3821.4676      0.25272350
       3822.2572      0.20347721
       3823.0468      0.15887681
       3823.8365      0.16486177
       3824.6261      0.13293239
       3825.4157      0.16882048
       3826.2053      0.16869306
       3826.9950      0.16163615
       3827.7846      0.20220977
       3828.5742      0.23416592
       3829.3638      0.13208499
       3830.1535      0.10780597
       3830.9431      0.14960814
       3831.7327      0.10410831
       3832.5223      0.12681451
       3833.3119      0.17416095
       3834.1016      0.12810622
       3834.8912      0.14201437
       3835.6808      0.17488711
       3836.4704      0.17596987
       3837.2601      0.18107872
       3838.0497      0.18446994
       3838.8393      0.19316045
       3839.6289      0.17919272
       3840.4185      0.19675018
       3841.2082      0.14389540
       3841.9978      0.18791852
       3842.7874      0.23813599
       3843.5770      0.21326936
       3844.3667      0.14837150
       3845.1563      0.23033966
       3845.9459      0.24137364
       3846.7355      0.23761424
       3847.5252      0.18444031
       3848.3148      0.23131424
       3849.1044      0.25939051
       3849.8940      0.29513599
       3850.6836      0.25840432
       3851.4733      0.19698845
       3852.2629      0.25104831
       3853.0525      0.17851766
       3853.8421      0.18787612
       3854.6318      0.23104071
       3855.4214      0.25071303
       3856.2110      0.26004368
       3857.0006      0.31404894
       4335.0551      0.93240015
       4335.9440       1.0138775
       4336.8329       1.4823882
       4337.7218       1.4254348
       4338.6107       1.1624807
       4339.4997       1.0314919
       4340.3886       1.3959095
       4341.2775       1.3385783
       4342.1664       1.2871038
       4343.0553       1.3211795
       4343.9442       1.4454116
       4344.8331       1.3772984
       4345.7221       1.3489629
       4346.6110       1.4771073
       4347.4999       1.3536221
       4348.3888       1.4821442
       4349.2777       1.4908518
       4350.1666       1.3016296
       4351.0555       1.4368761
       4351.9445       1.3986771
       4352.8334       1.1813017
       4353.7223       1.3510079
       4354.6112       1.2000423
       4355.5001       1.3132443
       4356.3890       1.4284783
       4357.2779       1.2682818
       4358.1669       1.3473205
       4359.0558       1.3561220
       4359.9447       1.1735314
       4360.8336       1.3426078
       4361.7225       1.4495261
       4362.6114       1.3820073
       4363.5003       1.2550544
       4364.3893       1.3758348
       4365.2782       1.4482247
       4366.1671       1.2683078
       4367.0560       1.1543362
       4367.9449       1.2556523
       4368.8338       1.1165382
       4369.7227       1.1583566
       4370.6117       1.2096987
       4371.5006       1.1354146
       4372.3895       1.1402920
       4373.2784       1.3181260
       4374.1673       1.2561023
       4375.0562       1.4223584
       4375.9451       1.3302044
       4376.8341       1.2673203
       4377.7230       1.2987036
       4378.6119       1.2914511
       4379.5008       1.1271261
       4380.3897       1.2292412
       4381.2786       1.2887979
       4382.1675       1.3522752
       4383.0565       1.2745772
       4383.9454       1.4278324
       4384.8343       1.1957844
       4385.7232       1.2831947
       4386.6121       1.2177885
       4387.5010       1.1657455
       4388.3899       1.1641008
       4389.2789       1.1882011
       4390.1678       1.4275951
       4391.0567       1.2335182
       4391.9456       1.3210377
       4392.8345       1.3110880
       4393.7234       1.2759807
       4394.6123       1.3011607
       4395.5013       1.4175158
       4396.3902       1.2298509
       4397.2791       1.3065871
       4398.1680       1.3641550
       4399.0569       1.4211699
       4399.9458       1.3325739
       4400.8347       1.2647006
       4401.7237       1.2804162
       4402.6126       1.4112130
       4403.5015       1.3462921
       4404.3904       1.3149537
       4405.2793       1.2664316
       4406.1682       1.3687604
       4407.0571       1.1712879
       4407.9461       1.3628996
       4408.8350       1.3712181
       4409.7239       1.1293400
       4410.6128       1.2916992
       4411.5017       1.3979819
       4412.3906       1.2889968
       4413.2795       1.2790563
       4414.1685       1.1743861
       4415.0574       1.2960686
       4415.9463       1.1802431
       4416.8352       1.2411401
       4417.7241       1.3376775
       4418.6130       1.4324026
       4419.5019       1.3816410
       4420.3909       1.4462722
       4421.2798       1.3872501
       4422.1687       1.4438163
       4423.0576       1.4677511
       4423.9465       1.4788105
       4424.8354       1.3853419
       4425.7243       1.3954880
       4426.6133       1.3625931
       4427.5022       1.3377170
       4428.3911       1.4246190
       4429.2800       1.4443423
       4430.1689       1.3044144
       4431.0578       1.5253861
       4431.9467       2.2372503
       4432.8357       2.8368634
       4433.7246       2.8402253
       4434.6135       2.9161088
       4435.5024       2.9212164
       4436.3913       2.7958604
       4437.2802       2.5677237
       4438.1691       1.7632177
       4439.0581       1.5760693
       4439.9470       1.4349209
       4440.8359       1.4603401
       4441.7248       1.3064168
       4442.6137       1.2844291
       4443.5026       1.2535701
       4444.3915       1.2873149
       4445.2805       1.3076987
       4446.1694       1.2371868
       4447.0583       1.3301308
       4447.9472       1.2639283
       4448.8361       1.2164427
       4449.7250       1.2220350
       4450.6139       1.2814589
       4451.5029       1.3579561
       4452.3918       1.3454284
       4453.2807       1.2574903
       4454.1696       1.3379282
       4455.0585       1.2990480
       4455.9474       1.3044388
       4456.8363       1.2943544
       4457.7253       1.4123737
       4458.6142       1.3770947
       4459.5031       1.4143619
       4460.3920       1.5172683
       4461.2809       1.4983878
       4462.1698       1.3979223
       4463.0587       1.4517244
       4463.9477       1.4575988
       4464.8366       1.4049853
       4465.7255       1.3103149
       4466.6144       1.4334046
       4467.5033       1.4665443
       4468.3922       1.4452908
       4469.2811       1.4596212
       4470.1701       1.3657490
       4471.0590       1.5360200
       4471.9479       1.5424380
       4472.8368       1.4486482
       4473.7257       1.3937095
       4474.6146       1.3497197
       4475.5035       1.2536411
       4476.3925       1.5081728
       4477.2814       1.4868277
       4478.1703       1.3509834
       4479.0592       1.3776566
       4479.9481       1.4806316
       4480.8370       1.4711964
       4481.7259       1.5835373
       4482.6149       1.5112475
       4483.5038       1.5116560
       4484.3927       1.5964218
       4485.2816       1.6096393
       4486.1705       1.4984351
       4487.0594       1.4609429
       4487.9483       1.4219323
       4488.8373       1.5099737
       4489.7262       1.5263644
       4490.6151       1.4678588
       4491.5040       1.5068779
       4492.3929       1.5919337
       4493.2818       1.5482284
       4494.1707       1.6838395
       4495.0597       1.5566823
       4495.9486       1.4854716
       4496.8375       1.5819160
       4497.7264       1.5342429
       4498.6153       1.5858251
       4499.5042       1.5397341
       4500.3931       1.6083209
       4501.2821       1.4496434
       4502.1710       1.5137757
       4503.0599       1.5456873
       4503.9488       1.5456748
       4504.8377       1.5360877
       4505.7266       1.6278091
       4506.6155       1.5177797
       4507.5045       1.6480823
       4508.3934       1.6910442
       4509.2823       1.5852104
       4510.1712       1.5304933
       4511.0601       1.5262422
       4511.9490       1.6127094
       4512.8379       1.5313823
       4513.7269       1.5016293
       4514.6158       1.4107333
       4515.5047       1.4272836
       4516.3936       1.4784396
       4517.2825       1.4813206
       4518.1714       1.4793364
       4519.0603       1.5331684
       4519.9493       1.5311564
       4520.8382       1.4479829
       4521.7271       1.3642336
       4522.6160       1.5246313
       4523.5049       1.6169979
       4524.3938       1.4539443
       4525.2827       1.6018547
       4526.1717       1.5332473
       4527.0606       1.7358735
       4527.9495       1.5458857
       4528.8384       1.4659240
       4529.7273       1.5953343
       4530.6162       1.5373465
       4531.5051       1.5982706
       4532.3941       1.4778634
       4533.2830       1.6584272
       4534.1719       1.5332528
       4535.0608       1.5563574
       4535.9497       1.5222214
       4536.8386       1.5912666
       4537.7275       1.6572119
       4538.6165       1.6027664
       4539.5054       1.6596056
       4540.3943       1.5705117
       4541.2832       1.5624511
       4542.1721       1.4221769
       4543.0610       1.5352292
       4543.9499       1.3880533
       4544.8389       1.6284015
       4545.7278       1.4818333
       4546.6167       1.6449703
       4547.5056       1.6958279
       4548.3945       1.8231502
       4549.2834       1.6112424
       4550.1723       1.6484436
       4551.0613       1.6326739
       4551.9502       1.6501161
       4552.8391       1.7142987
       4553.7280       1.7521136
       4554.6169       1.4530214
       4555.5058       1.5378784
       4556.3947       1.5685084
       4557.2837       1.6263847
       4558.1726       1.5814734
       4559.0615       1.5766711
       4559.9504       1.5733915
       4560.8393       1.5908319
       4561.7282       1.8036435
       4562.6171       1.7321363
       4563.5061       1.5848634
       4564.3950       1.5410217
       4565.2839       1.5620527
       4566.1728       1.6818385
       4567.0617       1.8101461
       4567.9506       1.7130698
       4568.8395       1.5662687
       4569.7285       1.6586821
       4570.6174       1.6718863
       4571.5063       1.6573819
       4572.3952       1.5981643
       4573.2841       1.5730745
       4574.1730       1.6655924
       4575.0619       1.7460241
       4575.9509       1.6910881
       4576.8398       1.6287168
       4577.7287       1.7901181
       4578.6176       1.7209775
       4579.5065       1.5102513
       4580.3954       1.6201862
       4581.2843       1.7081973
       4582.1733       1.6582373
       4583.0622       1.6750876
       4583.9511       1.6904899
       4584.8400       1.5419839
       4585.7289       1.6835921
       4586.6178       1.6825194
       4587.5068       1.6640596
       4588.3957       1.6357491
       4589.2846       1.6549520
       4590.1735       1.7046350
       4591.0624       1.7716688
       4591.9513       1.7247146
       4592.8402       1.6931917
       4593.7292       1.8031330
       4594.6181       1.8136182
       4595.5070       1.8393686
       4596.3959       1.7523381
       4597.2848       1.7053763
       4598.1737       1.6194220
       4599.0626       1.7254970
       4599.9516       1.8058730
       4600.8405       1.7730503
       4601.7294       1.7318830
       4602.6183       1.7245361
       4603.5072       1.9496683
       4604.3961       1.7353156
       4605.2850       1.7924873
       4606.1740       1.8122181
       4607.0629       1.8915085
       4607.9518       1.8632706
       4608.8407       1.8002376
       4609.7296       1.6786447
       4610.6185       1.7938228
       4611.5074       1.5884398
       4612.3964       1.8092861
       4613.2853       1.7335684
       4614.1742       1.8332800
       4615.0631       1.6414765
       4615.9520       1.7356219
       4616.8409       1.8141363
       4617.7298       1.8511664
       4618.6188       1.8484990
       4619.5077       1.6953086
       4620.3966       1.9019828
       4621.2855       1.7535577
       4622.1744       1.8019961
       4623.0633       1.8339527
       4623.9522       1.7884141
       4624.8412       1.5958549
       4625.7301       1.6720513
       4626.6190       1.6610498
       4627.5079       1.6097472
       4628.3968       1.6158830
       4629.2857       1.7039176
       4630.1746       1.6850326
       4631.0636       1.8199145
       4631.9525       1.7004352
       4632.8414       1.7698783
       4633.7303       1.6823855
       4634.6192       1.8085669
       4635.5081       1.5093404
       4636.3970       1.5239471
       4637.2860       1.6414151
       4638.1749       1.7481421
       4639.0638       1.7820684
       4639.9527       1.5853828
       4640.8416       1.5941949
       4641.7305       1.3247290
       4642.6194       1.6468586
       4643.5084       1.5088105
       4644.3973       1.7056902
       4645.2862       2.0822877
       4646.1751       2.0339963
       4647.0640       1.8159379
       4647.9529       1.9097523
       4648.8418       1.7664020
       4649.7308       1.9873219
       4650.6197       1.7732177
       4651.5086       1.5809036
       4652.3975       1.6811788
       4653.2864       1.6530294
       4654.1753       1.7008918
       4655.0642       1.7218214
       4655.9532       1.6956296
       4656.8421       1.7194364
       4657.7310       1.6446252
       4658.6199       1.5956743
       4659.5088       1.7167255
       4660.3977       1.7498313
       4661.2866       1.6743482
       4662.1756       1.7587157
       4663.0645       1.6546626
       4663.9534       1.7148424
       4664.8423       1.7254234
       4665.7312       1.6297092
       4666.6201       1.8273331
       4667.5090       1.7528605
       4668.3980       1.7220245
       4669.2869       1.7328290
       4670.1758       1.7453026
       4671.0647       1.6606560
       4671.9536       1.6494304
       4672.8425       1.8006800
       4673.7314       1.7944830
       4674.6204       1.7338640
       4675.5093       1.7593555
       4676.3982       1.7922413
       4677.2871       1.6980373
       4678.1760       1.7423462
       4679.0649       1.7788633
       4679.9538       1.8262315
       4680.8428       1.8782647
       4681.7317       1.9083812
       4682.6206       1.8666448
       4683.5095       1.6700649
       4684.3984       1.7597324
       4685.2873       1.8100427
       4686.1762       1.8603603
       4687.0652       1.7720810
       4687.9541       1.7605705
       4688.8430       1.6674554
       4689.7319       1.7682373
       4690.6208       1.7165879
       4691.5097       1.5964279
       4692.3986       1.9312242
       4693.2876       1.7603218
       4694.1765       1.8305480
       4695.0654       1.7175956
       4695.9543       1.6754669
       4696.8432       1.7784450
       4697.7321       1.7318712
       4698.6210       1.7267372
       4699.5100       1.8523705
       4700.3989       1.5943201
       4701.2878       1.6162580
       4702.1767       1.7660806
       4703.0656       1.6750808
       4703.9545       1.6492133
       4704.8434       1.6910830
       4705.7324       1.7053455
       4706.6213       1.6969307
       4707.5102       1.5973859
       4708.3991       1.7232043
       4709.2880       1.7459414
       4710.1769       1.7621153
       4711.0658       1.8214747
       4711.9548       1.7256494
       4712.8437       1.7485600
       4713.7326       1.8266050
       4714.6215       1.8366390
       4715.5104       1.6975582
       4716.3993       1.7033240
       4717.2882       1.7051156
       4718.1772       1.7717411
       4719.0661       1.7812948
       4719.9550       1.6907959
       4720.8439       1.7623909
       4721.7328       1.7318092
       4722.6217       1.7142289
       4723.5106       1.6908400
       4724.3996       1.5515176
       4725.2885       1.6979354
       4726.1774       1.8359583
       4727.0663       1.6294329
       4727.9552       1.6172425
       4728.8441       1.7502771
       4729.7330       1.7047672
       4730.6220       1.8065515
       4731.5109       1.8376990
       4732.3998       1.5688239
       4733.2887       1.6434204
       4734.1776       1.7892689
       4735.0665       1.7322065
       4735.9554       1.6868822
       4736.8444       1.7162005
       4737.7333       1.7387798
       4738.6222       1.7509585
       4739.5111       1.8523667
       4740.4000       1.7519875
       4741.2889       1.7503283
       4742.1778       1.6692315
       4743.0668       1.6536923
       4743.9557       1.8015255
       4744.8446       1.6742765
       4745.7335       1.7541597
       4746.6224       1.6232464
       4747.5113       1.6963160
       4748.4002       1.5739375
       4749.2892       1.6334445
       4750.1781       1.6580209
       4751.0670       1.7586929
       4751.9559       1.7433440
       4752.8448       1.7017015
       4753.7337       1.6956499
       4754.6226       1.6715318
       4755.5116       1.7251114
       4756.4005       1.7142620
       4757.2894       1.6377427
       4758.1783       1.9209681
       4759.0672       2.8283934
       4759.9561       2.6811539
       4760.8450       2.1141692
       4761.7340       1.9302813
       4762.6229       1.7309309
       4763.5118       1.6480813
       4764.4007       1.6110991
       4765.2896       1.7119359
       4766.1785       1.8445042
       4767.0674       1.7546655
       4767.9564       1.7416268
       4768.8453       1.7190867
       4769.7342       1.8773255
       4770.6231       1.7667888
       4771.5120       1.7526052
       4772.4009       1.7954500
       4773.2898       1.7189792
       4774.1788       1.8019694
       4775.0677       1.7406364
       4775.9566       1.8348150
       4776.8455       1.7893290
       4777.7344       1.8904371
       4778.6233       1.7781228
       4779.5122       1.7018586
       4780.4012       1.6320910
       4781.2901       1.6487998
       4782.1790       1.6934608
       4783.0679       1.6367311
       4783.9568       1.7256794
       4784.8457       1.7568169
       4785.7346       1.7315476
       4786.6236       1.6361730
       4787.5125       1.7191404
       4788.4014       1.8749792
       4789.2903       1.7757476
       4790.1792       1.8114779
       4791.0681       1.7453603
       4791.9570       1.6700936
       4792.8460       1.5431882
       4793.7349       1.6912510
       4794.6238       1.7388027
       4795.5127       1.8806969
       4796.4016       1.6601147
       4797.2905       1.6459610
       4798.1794       1.7536775
       4799.0684       1.6336411
       4799.9573       1.7169840
       4800.8462       1.7188509
       4801.7351       1.6749262
       4802.6240       1.7060511
       4803.5129       1.6503699
       4804.4018       1.7214142
       4805.2908       1.6494848
       4806.1797       1.7172654
       4807.0686       1.7907295
       4807.9575       1.8196891
       4808.8464       1.7319713
       4809.7353       1.7444059
       4810.6242       1.7364327
       4811.5132       1.9030692
       4812.4021       1.6726533
       4813.2910       1.6918333
       4814.1799       1.7239402
       4815.0688       1.8196155
       4815.9577       1.6732481
       4816.8466       1.7778049
       4817.7356       1.7026369
       4818.6245       1.7400018
       4819.5134       1.6994775
       4820.4023       1.7377556
       4821.2912       1.7144979
       4822.1801       1.7539051
       4823.0690       1.6463981
       4823.9580       1.7527253
       4824.8469       1.6249217
       4825.7358       1.6279873
       4826.6247       1.6160134
       4827.5136       1.6871844
       4828.4025       1.6796552
       4829.2914       1.7843022
       4830.1804       1.7424342
       4831.0693       1.6494468
       4831.9582       1.6576606
       4832.8471       1.6774543
       4833.7360       1.7244326
       4834.6249       1.6442577
       4835.5138       1.6600447
       4836.4028       1.6563996
       4837.2917       1.7136564
       4838.1806       1.6394940
       4839.0695       1.6843143
       4839.9584       1.5922337
       4840.8473       1.7663770
       4841.7362       1.6010628
       4842.6252       1.7605743
       4843.5141       1.6070909
       4844.4030       1.5995002
       4845.2919       1.5462644
       4846.1808       1.5997085
       4847.0697       1.6438843
       4847.9587       1.5935065
       4848.8476       1.5625729
       4849.7365       1.6462812
       4850.6254       1.7266572
       4851.5143       1.6473706
       4852.4032       1.6989490
       4853.2921       1.7234720
       4854.1811       1.7642298
       4855.0700       1.7931715
       4855.9589       1.7826942
       4856.8478       1.8825291
       4857.7367       1.9606586
       4858.6256       2.0310043
       4859.5145       1.9164419
       4860.4035       1.8425866
       4861.2924       1.8363288
       4862.1813       1.7031355
       4863.0702       1.5186901
       4863.9591       1.5419314
       4864.8480       1.4104265
       4865.7369       1.5998010
       4866.6259       1.5776913
       4867.5148       1.5819771
       4868.4037       1.5609676
       4869.2926       1.4762617
       4870.1815       1.4577468
       4871.0704       1.4303612
       4871.9593       1.6440333
       4872.8483       1.6598240
       4873.7372       1.6462402
       4874.6261       1.6811499
       4875.5150       1.5878913
       4876.4039       1.6056351
       4877.2928       1.6231025
       4878.1817       1.6321254
       4879.0707       1.5986595
       4879.9596       1.5683584
       4880.8485       1.6450971
       4881.7374       1.6012865
       4882.6263       1.5861786
       4883.5152       1.6693922
       4884.4041       1.6136765
       4885.2931       1.6443849
       4886.1820       1.6470588
       4887.0709       1.6582017
       4887.9598       1.8132193
       4888.8487       1.6087816
       4889.7376       1.7105319
       4890.6265       1.6689073
       4891.5155       1.6601867
       4892.4044       1.7082272
       4893.2933       1.6831444
       4894.1822       1.7361722
       4895.0711       1.7132290
       4895.9600       1.6980385
       4896.8489       1.6649589
       4897.7379       1.7129520
       4898.6268       1.7081577
       4899.5157       1.6932440
       4900.4046       1.6816372
       4901.2935       1.7569946
       4902.1824       1.7171486
       4903.0713       1.6991296
       4903.9603       1.7490341
       4904.8492       1.6584013
       4905.7381       1.7264821
       4906.6270       1.7614547
       4907.5159       1.7116288
       4908.4048       1.7400950
       4909.2937       1.6191243
       4910.1827       1.6784894
       4911.0716       1.6757881
       4911.9605       1.7072906
       4912.8494       1.7121961
       4913.7383       1.6080122
       4914.6272       1.7442900
       4915.5161       1.7059511
       4916.4051       1.6258142
       4917.2940       1.7430724
       4918.1829       1.6412753
       4919.0718       1.6658731
       4919.9607       1.6325824
       4920.8496       1.7528519
       4921.7385       1.7408227
       4922.6275       1.6015880
       4923.5164       1.7344026
       4924.4053       1.8126611
       4925.2942       1.6927296
       4926.1831       1.8254693
       4927.0720       1.8887970
       4927.9609       1.8749145
       4928.8499       1.8482600
       4929.7388       1.7056273
       4930.6277       1.7891474
       4931.5166       1.9082314
       4932.4055       1.7781757
       4933.2944       1.7879085
       4934.1833       1.7149597
       4935.0723       1.5685465
       4935.9612       1.7373226
       4936.8501       1.7200031
       4937.7390       1.7644326
       4938.6279       1.6975121
       4939.5168       1.7060256
       4940.4057       1.6596638
       4941.2947       1.7071332
       4942.1836       1.9658338
       4943.0725       1.8887314
       4943.9614       1.8733780
       4944.8503       1.7864601
       4945.7392       1.8613068
       4946.6281       1.9040746
       4947.5171       1.8346964
       4948.4060       1.7121445
       4949.2949       1.9128523
       4950.1838       1.8612446
       4951.0727       1.8806534
       4951.9616       1.8647234
       4952.8505       1.8853919
       4953.7395       1.8554478
       4954.6284       1.9086446
       4955.5173       1.8699822
       4956.4062       1.7780637
       4957.2951       1.6966123
       4958.1840       1.8390935
       4959.0729       1.9044919
       4959.9619       1.8363839
       4960.8508       1.8295895
       4961.7397       1.8145967
       4962.6286       1.8910245
       4963.5175       1.7722890
       4964.4064       1.7238351
       4965.2953       1.6139535
       4966.1843       1.7258507
       4967.0732       1.7632996
       4967.9621       1.6956484
       4968.8510       1.6871771
       4969.7399       1.7912381
       4970.6288       1.7538513
       4971.5177       1.7270634
       4972.4067       1.6472121
       4973.2956       1.6976820
       4974.1845       1.6383233
       4975.0734       1.7788928
       4975.9623       1.7439682
       4976.8512       1.6413019
       4977.7401       1.6768805
       4978.6291       1.7199719
       4979.5180       1.6452130
       4980.4069       1.6051105
       4981.2958       1.8074351
       4982.1847       1.6408263
       4983.0736       1.5634638
       4983.9625       1.7591381
       4984.8515       1.7057210
       4985.7404       1.7152314
       4986.6293       1.6154613
       4987.5182       1.7105082
       4988.4071       1.6039083
       4989.2960       1.7241473
       4990.1849       1.6992681
       4991.0739       1.8212095
       4991.9628       1.7414683
       4992.8517       1.7767755
       4993.7406       1.8185142
       4994.6295       1.7226949
       4995.5184       1.8081528
       4996.4073       1.7870811
       4997.2963       1.7651833
       4998.1852       1.8002051
       4999.0741       1.9574054
       4999.9630       1.9142601
       5000.8519       2.0523506
       5001.7408       2.1373540
       5002.6297       1.9597746
       5003.5187       1.9361150
       5004.4076       1.9636036
       5005.2965       2.0095411
       5006.1854       1.9176666
       5007.0743       2.0166769
       5007.9632       1.9382749
       5008.8521       1.8697730
       5009.7411       1.8192112
       5010.6300       1.7842248
       5011.5189       1.8704976
       5012.4078       1.7197780
       5013.2967       1.7707313
       5014.1856       1.7114897
       5015.0745       1.6639883
       5015.9635       1.7032780
       5016.8524       1.5898622
       5017.7413       1.6234182
       5018.6302       1.7194277
       5019.5191       1.6862043
       5020.4080       1.7548556
       5021.2969       1.7472733
       5022.1859       1.7945402
       5023.0748       1.7481444
       5023.9637       1.6991320
       5024.8526       1.7755199
       5025.7415       1.8241801
       5026.6304       1.7801780
       5027.5193       1.7851645
       5028.4083       1.7044945
       5029.2972       1.8221222
       5030.1861       1.6714629
       5031.0750       1.7586732
       5031.9639       1.7601487
       5032.8528       1.8236739
       5033.7417       1.7080692
       5034.6307       1.7894323
       5035.5196       1.7689208
       5036.4085       1.7502828
       5037.2974       1.8288973
       5038.1863       1.7408718
       5039.0752       1.6770425
       5039.9641       1.6126452
       5040.8531       1.6489942
       5041.7420       1.6187362
       5042.6309       1.7911474
       5043.5198       1.5751776
       5044.4087       1.7100313
       5045.2976       1.7237612
       5046.1865       1.7392080
       5047.0755       1.6910158
       5047.9644       1.7366099
       5048.8533       1.7233697
       5049.7422       1.8001940
       5050.6311       1.8274657
       5051.5200       1.8093698
       5052.4089       1.8133161
       5053.2979       1.6782919
       5054.1868       1.8047728
       5055.0757       1.7690019
       5055.9646       1.7346043
       5056.8535       1.8535824
       5057.7424       1.9154467
       5058.6313       1.7977381
       5059.5203       1.6892201
       5060.4092       1.8131890
       5061.2981       1.7667916
       5062.1870       1.7395515
       5063.0759       1.8034282
       5063.9648       1.7712098
       5064.8537       1.8018377
       5065.7427       1.6826169
       5066.6316       1.7854358
       5067.5205       1.5464641
       5068.4094       1.4746475
       5069.2983       1.5404095
       5070.1872       1.3705923
       5071.0761       1.2845762
       5071.9651       1.2562295
       5072.8540       1.4328528
       5073.7429       1.4564361
       5074.6318       1.3971702
       5075.5207       1.4126634
       5076.4096       1.4680938
       5077.2985       1.6220448
       5078.1875       1.6613069
       5079.0764       1.5977148
       5079.9653       1.6813430
       5080.8542       1.5815025
       5081.7431       1.6383163
       5082.6320       1.5828042
       5083.5209       1.6796927
       5084.4099       1.5708494
       5085.2988       1.5507560
       5086.1877       1.6126904
       5087.0766       1.6139584
       5087.9655       1.6208061
       5088.8544       1.5731676
       5089.7433       1.7436278
       5090.6323       1.6848096
       5091.5212       1.7138045
       5092.4101       1.6324815
       5093.2990       1.7687514
       5094.1879       1.5824933
       5095.0768       1.7370089
       5095.9657       1.5894747
       5096.8547       1.6532957
       5097.7436       1.6563516
       5098.6325       1.6372919
       5099.5214       1.6101516
       5100.4103       1.7024079
       5101.2992       1.6944236
       5102.1881       1.7102271
       5103.0771       1.7761765
       5103.9660       1.7240621
       5104.8549       1.7804837
       5105.7438       1.8737616
       5106.6327       1.7119268
       5107.5216       1.7312258
       5108.4105       1.6737824
       5109.2995       1.7387570
       5110.1884       1.8391553
       5111.0773       1.8742742
       5111.9662       1.7831932
       5112.8551       1.8319665
       5113.7440       1.9009403
       5114.6330       1.7960736
       5115.5219       1.7622373
       5116.4108       1.8834478
       5117.2997       1.7551727
       5118.1886       1.8214235
       5119.0775       1.8726710
       5119.9664       1.8508052
       5120.8554       1.7898466
       5121.7443       1.6837025
       5122.6332       1.7297544
       5123.5221       1.8648433
       5124.4110       1.7361610
       5125.2999       1.5817769
       5126.1888       1.7235587
       5127.0778       1.7601203
       5127.9667       1.7991922
       5128.8556       1.8062595
       5129.7445       1.7828285
       5130.6334       1.8323081
       5131.5223       1.6950550
       5132.4112       1.6848269
       5133.3002       1.7497788
       5134.1891       1.7593094
       5135.0780       1.9253048
       5135.9669       1.9263282
       5136.8558       1.8506930
       5137.7447       1.9179278
       5138.6336       1.8373723
       5139.5226       1.8301947
       5140.4115       1.7230434
       5141.3004       1.7744748
       5142.1893       1.8132826
       5143.0782       1.7905619
       5143.9671       1.7762155
       5144.8560       1.7759827
       5145.7450       1.7183072
       5146.6339       1.8141617
       5147.5228       1.6641506
       5148.4117       1.7279001
       5149.3006       1.7762698
       5150.1895       1.8667933
       5151.0784       1.8401705
       5151.9674       1.6368018
       5152.8563       1.6777872
       5153.7452       1.8341420
       5154.6341       1.7661447
       5155.5230       1.7471588
       5156.4119       1.6912914
       5157.3008       1.7893061
       5158.1898       1.8591015
       5159.0787       1.7334124
       5159.9676       1.7248854
       5160.8565       1.7190318
       5161.7454       1.7012281
       5162.6343       1.5130644
       5163.5232       1.6517502
       5164.4122       1.5221825
       5165.3011       1.4749913
       5166.1900       1.5937800
       5167.0789       1.5285187
       5167.9678       1.4706447
       5168.8567       1.5798956
       5169.7456       1.6041044
       5170.6346       1.6100451
       5171.5235       1.6264929
       5172.4124       1.5306596
       5173.3013       1.6850718
       5174.1902       1.6059980
       5175.0791       1.6534597
       5175.9680       1.6769617
       5176.8570       1.6983997
       5177.7459       1.7855439
       5178.6348       1.6239131
       5179.5237       1.7089344
       5180.4126       1.6035415
       5181.3015       1.7060026
       5182.1904       1.6851552
       5183.0794       1.6501963
       5183.9683       1.7017097
       5184.8572       1.6725301
       5185.7461       1.7129835
       5186.6350       1.6865186
       5187.5239       1.6583905
       5188.4128       1.7611436
       5189.3018       1.7044205
       5190.1907       1.8179905
       5191.0796       1.8111760
       5191.9685       1.7760876
       5192.8574       1.8682002
       5193.7463       1.8123587
       5194.6352       1.9644717
       5195.5242       1.9722154
       5196.4131       1.8954244
       5197.3020       1.7469870
       5198.1909       1.8846458
       5199.0798       2.0335365
       5199.9687       2.0850624
       5200.8576       1.9883875
       5201.7466       1.9378349
       5202.6355       1.9177895
       5203.5244       2.0087990
       5204.4133       1.9352373
       5205.3022       1.9508406
       5206.1911       1.8889747
       5207.0800       1.9534434
       5207.9690       1.8045829
       5208.8579       1.7801433
       5209.7468       1.7375825
       5210.6357       1.8845748
       5211.5246       1.9047662
       5212.4135       1.8350592
       5213.3024       1.7815543
       5214.1914       1.7543104
       5215.0803       1.8343326
       5215.9692       1.9673514
       5216.8581       1.9540469
       5217.7470       1.8748699
       5218.6359       2.0082754
       5219.5248       1.8771419
       5220.4138       1.9466089
       5221.3027       1.8927658
       5222.1916       1.8068028
       5223.0805       1.8286689
       5223.9694       1.8896094
       5224.8583       1.7665851
       5225.7472       1.8913829
       5226.6362       1.8386607
       5227.5251       1.8197744
       5228.4140       1.8334070
       5229.3029       1.8038937
       5230.1918       1.7759768
       5231.0807       1.8320441
       5231.9696       1.8639051
       5232.8586       1.9637265
       5233.7475       1.9720130
       5234.6364       1.9685037
       5235.5253       1.9410246
       5236.4142       1.9623502
       5237.3031       1.9544250
       5238.1920       1.9869085
       5239.0810       2.1133493
       5239.9699       2.0189507
       5240.8588       1.9933592
       5241.7477       1.9676477
       5242.6366       2.0176095
       5243.5255       1.9961440
       5244.4144       2.0098617
       5245.3034       1.9595568
       5246.1923       1.9741028
       5247.0812       1.9824550
       5247.9701       2.0513452
       5248.8590       1.9218852
       5249.7479       1.8137607
       5250.6368       1.9061110
       5251.5258       1.9516276
       5252.4147       1.9400807
       5253.3036       2.0050980
       5254.1925       1.9432667
       5255.0814       1.9634242
       5255.9703       1.8689830
       5256.8592       1.9084934
       5257.7482       1.9573833
       5258.6371       1.9437349
       5259.5260       1.9917435
       5260.4149       1.9653972
       5261.3038       2.0029449
       5262.1927       1.8976105
       5263.0816       1.8673723
       5263.9706       1.8493352
       5264.8595       1.7905304
       5265.7484       1.8306569
       5266.6373       1.9080223
       5267.5262       1.7498539
       5268.4151       1.8616031
       5269.3040       1.7410684
       5270.1930       1.7745218
       5271.0819       1.7723318
       5271.9708       1.8521521
       5272.8597       1.8420056
       5273.7486       1.9075894
       5274.6375       1.9055283
       5275.5264       1.9267544
       5276.4154       1.8555364
       5277.3043       2.0309468
       5278.1932       2.0516430
       5279.0821       1.9412629
       5279.9710       1.9497361
       5280.8599       2.0150819
       5281.7488       1.9323608
       5282.6378       1.9979084
       5283.5267       2.0564383
       5284.4156       2.0723028
       5285.3045       1.9975844
       5286.1934       1.9955538
       5287.0823       1.9715227
       5287.9712       2.0752724
       5288.8602       2.0186865
       5289.7491       2.0481893
       5290.6380       2.1059141
       5291.5269       2.0094562
       5292.4158       2.0461684
       5293.3047       1.9666257
       5294.1936       2.0741984
       5295.0826       2.0119971
       5295.9715       2.0359443
       5296.8604       1.9112026
       5297.7493       2.0261069
       5298.6382       1.9990446
       5299.5271       2.0129834
       5300.4160       2.0762626
       5301.3050       1.9488567
       5302.1939       2.0566155
       5303.0828       1.9990600
       5303.9717       1.9549700
       5304.8606       1.9490590
       5305.7495       1.9890673
       5306.6384       2.1658192
       5307.5274       2.1991737
       5308.4163       2.1371148
       5309.3052       2.1087775
       5310.1941       2.0976478
       5311.0830       2.1259551
       5311.9719       2.1619574
       5312.8608       2.0768929
       5313.7498       2.0093609
       5314.6387       1.9622624
       5315.5276       1.9911190
       5316.4165       2.1095291
       5317.3054       2.1256067
       5318.1943       2.0970750
       5319.0832       2.0462559
       5319.9722       1.9003549
       5320.8611       1.9308408
       5321.7500       1.9876008
       5322.6389       2.0826431
       5323.5278       2.0192652
       5324.4167       2.0602757
       5325.3056       2.0297910
       5326.1946       1.9087307
       5327.0835       1.9390953
       5327.9724       1.9206869
       5328.8613       1.9475650
       5329.7502       1.9845970
       5330.6391       1.9250800
       5331.5280       2.1091812
       5332.4170       2.0154201
       5333.3059       2.0303802
       5334.1948       2.1531463
       5335.0837       2.0177581
       5335.9726       2.0684271
       5336.8615       2.0740109
       5337.7504       2.0709285
       5338.6394       2.1464399
       5339.5283       1.9982277
       5340.4172       2.0328700
       5341.3061       2.1244965
       5342.1950       2.0404782
       5343.0839       2.0810456
       5343.9728       1.8352748
       5344.8618       1.9523539
       5345.7507       1.9706462
       5346.6396       1.9965509
       5347.5285       1.9070786
       5348.4174       2.1749972
       5349.3063       2.1189056
       5350.1952       2.2344179
       5351.0842       2.1742425
       5351.9731       2.0814266
       5352.8620       2.1046360
       5353.7509       2.2369420
       5354.6398       2.1879172
       5355.5287       2.1207226
       5356.4176       2.1663842
       5357.3066       2.0950127
       5358.1955       2.1248948
       5359.0844       2.1356510
       5359.9733       2.1188612
       5360.8622       2.2480759
       5361.7511       2.2566088
       5362.6400       2.0299157
       5363.5290       2.1620078
       5364.4179       2.0011323
       5365.3068       1.9842877
       5366.1957       2.0477796
       5367.0846       2.0698134
       5367.9735       2.0094415
       5368.8624       1.9178572
       5369.7514       2.1051970
       5370.6403       2.0027132
       5371.5292       2.0716146
       5372.4181       1.8887572
       5373.3070       2.0469502
       5374.1959       2.1461948
       5375.0849       2.1189909
       5375.9738       2.0694041
       5376.8627       2.3040758
       5377.7516       2.2199868
       5378.6405       2.1288593
       5379.5294       2.2236572
       5380.4183       2.2045589
       5381.3073       2.1980630
       5382.1962       2.1582008
       5383.0851       2.1581386
       5383.9740       2.1416945
       5384.8629       2.1858931
       5385.7518       2.1238460
       5386.6407       2.1712943
       5387.5297       2.1457090
       5388.4186       2.1597648
       5389.3075       2.1332546
       5390.1964       2.1722237
       5391.0853       2.1352611
       5391.9742       2.1955066
       5392.8631       2.1331748
       5393.7521       2.0885381
       5394.6410       2.2013646
       5395.5299       2.1267341
       5396.4188       2.1145924
       5397.3077       2.1375158
       5398.1966       2.1229265
       5399.0855       2.1540027
       5399.9745       1.9009349
       5400.8634       1.9296549
       5401.7523       2.1287821
       5402.6412       1.9046913
       5403.5301       2.0553268
       5404.4190       2.0237038
       5405.3079       2.0945512
       5406.1969       2.0702383
       5407.0858       2.1047690
       5407.9747       2.0806592
       5408.8636       2.0438611
       5409.7525       2.1059249
       5410.6414       2.1620494
       5411.5303       2.0483130
       5412.4193       2.1440845
       5413.3082       2.1484207
       5414.1971       2.1131456
       5415.0860       2.2242002
       5415.9749       2.1357688
       5416.8638       2.1272960
       5417.7527       1.9834227
       5418.6417       2.0268592
       5419.5306       2.3074550
       5420.4195       2.0750632
       5421.3084       2.2352551
       5422.1973       2.2486035
       5423.0862       2.1931427
       5423.9751       2.2803547
       5424.8641       2.1836027
       5425.7530       2.3177074
       5426.6419       2.3052386
       5427.5308       2.2882220
       5428.4197       2.1546905
       5429.3086       2.1762332
       5430.1975       2.1273745
       5431.0865       2.0165742
       5431.9754       2.1685343
       5432.8643       2.2844608
       5433.7532       2.2698072
       5434.6421       2.1910359
       5435.5310       2.1089790
       5436.4199       2.2295442
       5437.3089       2.2050922
       5438.1978       2.1350063
       5439.0867       2.2059058
       5439.9756       2.2889264
       5440.8645       2.1225260
       5441.7534       2.2786213
       5442.6423       2.3689370
       5443.5313       2.2602585
       5444.4202       2.2199485
       5445.3091       2.3044531
       5446.1980       2.0947981
       5447.0869       2.2664573
       5447.9758       2.2234685
       5448.8647       2.3042456
       5449.7537       2.1748573
       5450.6426       2.1606804
       5451.5315       2.2258213
       5452.4204       2.2273896
       5453.3093       2.3133119
       5454.1982       2.2892067
       5455.0871       2.1864834
       5455.9761       2.1375423
       5456.8650       2.1943697
       5457.7539       2.1520665
       5458.6428       2.2484948
       5459.5317       2.1415226
       5460.4206       2.2415291
       5461.3095       2.2599449
       5462.1985       2.1592989
       5463.0874       2.1799197
       5463.9763       2.2877022
       5464.8652       2.3077607
       5465.7541       2.0464466
       5466.6430       2.1884579
       5467.5319       2.2705587
       5468.4209       2.2965434
       5469.3098       2.2581009
       5470.1987       2.2926429
       5471.0876       2.1960216
       5471.9765       2.2053690
       5472.8654       2.2090617
       5473.7543       2.1541879
       5474.6433       2.3813948
       5475.5322       2.2605661
       5476.4211       2.2669949
       5477.3100       2.1296864
       5478.1989       2.1162496
       5479.0878       2.2321820
       5479.9767       2.1539362
       5480.8657       2.1309129
       5481.7546       2.2339062
       5482.6435       2.1797558
       5483.5324       2.2786558
       5484.4213       2.2711911
       5485.3102       2.1160140
       5486.1991       2.1788351
       5487.0881       2.1587456
       5487.9770       2.2986224
       5488.8659       2.3048438
       5489.7548       2.3352732
       5490.6437       2.3610242
       5491.5326       2.2383109
       5492.4215       2.3159950
       5493.3105       2.0469814
       5494.1994       2.3124027
       5495.0883       2.3906618
       5495.9772       2.2565081
       5496.8661       2.3232776
       5497.7550       2.3763430
       5498.6439       2.4209749
       5499.5329       2.2580005
       5500.4218       2.2997838
       5501.3107       2.2804373
       5502.1996       2.2606692
       5503.0885       2.3341293
       5503.9774       2.2511740
       5504.8663       2.1590914
       5505.7553       2.3366447
       5506.6442       2.3309623
       5507.5331       2.1804650
       5508.4220       2.2870439
       5509.3109       2.2803614
       5510.1998       2.2112574
       5511.0887       2.3107390
       5511.9777       2.2523267
       5512.8666       2.2502627
       5513.7555       2.2788162
       5514.6444       2.2703451
       5515.5333       2.2388667
       5516.4222       2.3605852
       5517.3111       2.2708215
       5518.2001       2.3984831
       5519.0890       2.3383792
       5519.9779       2.2648843
       5520.8668       2.4010034
       5521.7557       2.5115438
       5522.6446       2.4028080
       5523.5335       2.2444409
       5524.4225       2.1661764
       5525.3114       2.4836824
       5526.2003       2.4213970
       5527.0892       2.3391647
       5527.9781       2.4543282
       5528.8670       2.4992124
       5529.7559       2.4779435
       5530.6449       2.4574182
       5531.5338       2.5499326
       5532.4227       2.5895402
       5533.3116       2.5146264
       5534.2005       2.4650356
       5535.0894       2.4444908
       5535.9783       2.5324129
       5536.8673       2.5031823
       5537.7562       2.4159453
       5538.6451       2.5765710
       5539.5340       2.6056915
       5540.4229       2.6477146
       5541.3118       2.5749580
       5542.2007       2.4665805
       5543.0897       2.4913773
       5543.9786       2.4746867
       5544.8675       2.6614932
       5545.7564       2.5529641
       5546.6453       2.3397607
       5547.5342       2.5149051
       5548.4231       2.4338167
       5549.3121       2.4306201
       5550.2010       2.3538494
       5551.0899       2.4401295
       5551.9788       2.4196130
       5552.8677       2.3729922
       5553.7566       2.3294952
       5554.6455       2.4347704
       5555.5345       2.3844208
       5556.4234       2.4655478
       5557.3123       2.4677724
       5558.2012       2.4908756
       5559.0901       2.4622338
       5559.9790       2.6581535
       5560.8679       2.5117747
       5561.7569       2.6056137
       5562.6458       2.4043208
       5563.5347       2.3568021
       5564.4236       2.2696681
       5565.3125       2.3461900
       5566.2014       2.3204765
       5567.0903       2.3869615
       5567.9793       2.2903148
       5568.8682       2.4609028
       5569.7571       2.4351544
       5570.6460       2.2647185
       5571.5349       2.2872425
       5572.4238       2.3867020
       5573.3127       2.2417187
       5574.2017       2.2875324
       5575.0906       2.3900859
       5575.9795       2.2972959
       5576.8684       2.4066709
       5577.7573       2.4570014
       5578.6462       2.4360850
       5579.5351       2.2947432
       5580.4241       2.4098266
       5581.3130       2.2561391
       5582.2019       2.2535260
       5583.0908       2.3872838
       5583.9797       2.2533070
       5584.8686       2.3120429
       5585.7575       2.2552559
       5586.6465       2.3445946
       5587.5354       2.3891672
       5588.4243       2.5117521
       5589.3132       2.5180974
       5590.2021       2.3103904
       5591.0910       2.6023612
       5591.9799       2.4945147
       5592.8689       2.4666107
       5593.7578       2.5557785
       5594.6467       2.5352473
       5595.5356       2.4912465
       5596.4245       2.5014787
       5597.3134       2.3309398
       5598.2023       2.4051191
       5599.0913       2.6583964
       5599.9802       2.4654569
       5600.8691       2.3156563
       5601.7580       2.3219223
       5602.6469       2.3477525
       5603.5358       2.2712513
       5604.4247       2.3482157
       5605.3137       2.3389038
       5606.2026       2.0586573
       5607.0915       1.8797017
       5607.9804       1.7096329
       5608.8693       1.6000860
       5609.7582       1.3836981
       5610.6471       1.2583530
       5611.5361       1.0279666
       5612.4250      0.93679401
       5613.3139      0.98800194
       5614.2028      0.90607030
       5615.0917      0.87168204
       5615.9806             NaN
       5616.8695             NaN
       5617.7585             NaN
       5618.6474             NaN
       5619.5363             NaN
       5620.4252             NaN
       5621.3141             NaN
       5622.2030             NaN
       5623.0919             NaN
       5623.9809             NaN
       5624.8698             NaN
       5625.7587             NaN
       5626.6476             NaN
       5627.5365             NaN
       5628.4254             NaN
       5629.3143             NaN
       5630.2033             NaN
       5631.0922             NaN
       5631.9811             NaN
       5632.8700             NaN
       5633.7589             NaN
       5634.6478             NaN
       5635.5367             NaN
       5636.4257             NaN
       5637.3146             NaN
       5638.2035             NaN
       5639.0924             NaN
       5639.9813             NaN
       5640.8702             NaN
       5641.7592             NaN
       5642.6481             NaN
       5643.5370             NaN
       5644.4259             NaN
       5645.3148             NaN
       5646.2037             NaN
       5647.0926             NaN
       5647.9816             NaN
       5648.8705             NaN
       5649.7594             NaN
       5650.6483             NaN
       5651.5372             NaN
       5652.4261             NaN
       5653.3150             NaN
       5654.2040             NaN
       5655.0929             NaN
       5655.9818             NaN
       5656.8707             NaN
       5657.7596             NaN
       5658.6485             NaN
       5659.5374             NaN
       5660.4264             NaN
       5661.3153             NaN
       5662.2042             NaN
       5663.0931             NaN
       5663.9820             NaN
       5664.8709             NaN
       5665.7598             NaN
       5666.6488             NaN
       5667.5377             NaN
       5668.4266             NaN
       5669.3155             NaN
       5670.2044             NaN
       5671.0933             NaN
       5671.9822             NaN
       5672.8712             NaN
       5673.7601             NaN
       5674.6490             NaN
       5675.5379             NaN
       5676.4268             NaN
       5677.3157             NaN
       5678.2046             NaN
       5679.0936             NaN
       5679.9825             NaN
       5680.8714             NaN
       5681.7603             NaN
       5682.6492             NaN
       5683.5381             NaN
       5684.4270             NaN
       5685.3160             NaN
       5686.2049             NaN
       5687.0938             NaN
       5687.9827             NaN
       5688.8716             NaN
       5689.7605             NaN
       5690.6494             NaN
       5691.5384             NaN
       5692.4273             NaN
       5693.3162             NaN
       5694.2051       2.3434200
       5695.0940       2.2146383
       5695.9829       2.3106405
       5696.8718       2.4683927
       5697.7608       2.4598847
       5698.6497       2.6306352
       5699.5386       2.6053847
       5700.4275       2.3255819
       5701.3164       2.5688083
       5702.2053       2.5164299
       5703.0942       2.5038002
       5703.9832       2.3536220
       5704.8721       2.3774898
       5705.7610       2.2994072
       5706.6499       2.4842187
       5707.5388       2.4047248
       5708.4277       2.4057792
       5709.3166       2.4321172
       5710.2056       2.3685153
       5711.0945       2.3820867
       5711.9834       2.3128378
       5712.8723       2.5271946
       5713.7612       2.5658619
       5714.6501       2.3727700
       5715.5390       2.5205686
       5716.4280       2.5882234
       5717.3169       2.4911761
       5718.2058       2.4361446
       5719.0947       2.5182015
       5719.9836       2.4774328
       5720.8725       2.4049056
       5721.7614       2.4232848
       5722.6504       2.3824498
       5723.5393       2.5631922
       5724.4282       2.4507310
       5725.3171       2.5614127
       5726.2060       2.6754349
       5727.0949       2.5610318
       5727.9838       2.5539600
       5728.8728       2.6479208
       5729.7617       2.7482226
       5730.6506       2.6876538
       5731.5395       2.5191405
       5732.4284       2.6525580
       5733.3173       2.6082966
       5734.2062       2.6180699
       5735.0952       2.5957883
       5735.9841       2.5211789
       5736.8730       2.6997408
       5737.7619       2.7064839
       5738.6508       2.4695028
       5739.5397       2.4366244
       5740.4286       2.6962264
       5741.3176       2.7439924
       5742.2065       2.5774444
       5743.0954       2.6779546
       5743.9843       2.6327212
       5744.8732       2.6299508
       5745.7621       2.5551422
       5746.6510       2.6740384
       5747.5400       2.6074642
       5748.4289       2.5373607
       5749.3178       2.5717332
       5750.2067       2.5723263
       5751.0956       2.6447864
       5751.9845       2.5602654
       5752.8734       2.3851178
       5753.7624       2.5179896
       5754.6513       2.5537430
       5755.5402       2.7251162
       5756.4291       2.5488409
       5757.3180       2.4992709
       5758.2069       2.6103296
       5759.0958       2.5220309
       5759.9848       2.7148144
       5760.8737       2.6156985
       5761.7626       2.4571826
       5762.6515       2.5754110
       5763.5404       2.5327855
       5764.4293       2.5408363
       5765.3182       2.8452805
       5766.2072       2.5777931
       5767.0961       2.7551236
       5767.9850       2.6200687
       5768.8739       2.7773140
       5769.7628       2.7075754
       5770.6517       2.6094133
       5771.5406       2.6648448
       5772.4296       2.5471795
       5773.3185       2.7486725
       5774.2074       2.5434647
       5775.0963       2.2280317
       5775.9852       2.4495052
       5776.8741       2.5284516
       5777.7630       2.3994308
       5778.6520       2.6820891
       5779.5409       2.6697286
       5780.4298       2.5955252
       5781.3187       2.4671587
       5782.2076       2.4386553
       5783.0965       2.5109613
       5783.9854       2.4801523
       5784.8744       2.4984198
       5785.7633       2.5665814
       5786.6522       2.3861833
       5787.5411       2.3467208
       5788.4300       2.4911037
       5789.3189       2.4913805
       5790.2078       2.5753705
       5791.0968       2.5974547
       5791.9857       2.6352696
       5792.8746       2.6947787
       5793.7635       2.5185638
       5794.6524       2.5448896
       5795.5413       2.7320305
       5796.4302       2.3840804
       5797.3192       2.5379403
       5798.2081       2.4142100
       5799.0970       2.5033343
       5799.9859       2.5108796
       5800.8748       2.5448103
       5801.7637       2.9394548
       5802.6526       2.9293664
       5803.5416       2.8069333
       5804.4305       2.9146600
       5805.3194       2.8433289
       5806.2083       2.8543942
       5807.0972       2.6286172
       5807.9861       2.5877090
       5808.8750       2.4948094
       5809.7640       2.6395567
       5810.6529       2.5926244
       5811.5418       2.3428359
       5812.4307       2.7055653
       5813.3196       2.6532037
       5814.2085       2.6501253
       5815.0974       2.7025990
       5815.9864       2.5480022
       5816.8753       2.6902501
       5817.7642       2.5164217
       5818.6531       2.5547574
       5819.5420       2.6957232
       5820.4309       2.7874490
       5821.3198       2.8504202
       5822.2088       2.8859970
       5823.0977       2.8385718
       5823.9866       2.6972132
       5824.8755       2.8032699
       5825.7644       2.5719837
       5826.6533       2.5659613
       5827.5422       2.8247762
       5828.4312       2.6104028
       5829.3201       2.7264748
       5830.2090       2.7302227
       5831.0979       2.6223279
       5831.9868       2.6745365
       5832.8757       2.7057411
       5833.7646       2.6778597
       5834.6536       2.7350804
       5835.5425       2.6430230
       5836.4314       2.6887365
       5837.3203       2.6759539
       5838.2092       2.5647696
       5839.0981       2.6128580
       5839.9870       2.5862808
       5840.8760       2.5890917
       5841.7649       2.6349581
       5842.6538       2.2714160
       5843.5427       2.6037880
       5844.4316       2.6186636
       5845.3205       2.5393725
       5846.2094       2.5842076
       5847.0984       2.5455677
       5847.9873       2.6197118
       5848.8762       2.5479823
       5849.7651       2.6470493
       5850.6540       2.4946054
       5851.5429       2.7248460
       5852.4318       2.5795985
       5853.3208       2.4559203
       5854.2097       2.5285219
       5855.0986       2.5314693
       5855.9875       2.4966330
       5856.8764       2.4350774
       5857.7653       2.6249044
       5858.6542       2.6392809
       5859.5432       2.5597161
       5860.4321       2.5532905
       5861.3210       2.5549868
       5862.2099       2.4665901
       5863.0988       2.4816230
       5863.9877       2.5585313
       5864.8766       2.5117276
       5865.7656       2.6031424
       5866.6545       2.6826760
       5867.5434       2.6879899
       5868.4323       2.7461235
       5869.3212       2.7670333
       5870.2101       2.8515042
       5871.0990       2.6389553
       5871.9880       2.7229949
       5872.8769       2.7494468
       5873.7658       2.7387037
       5874.6547       2.6489696
       5875.5436       2.8032926
       5876.4325       2.7192830
       5877.3214       2.6729427
       5878.2104       2.5880046
       5879.0993       2.6589411
       5879.9882       2.6508848
       5880.8771       2.5611422
       5881.7660       2.4897594
       5882.6549       2.1578651
       5883.5438       2.5899534
       5884.4328       2.2989662
       5885.3217       2.4277316
       5886.2106       2.2562453
       5887.0995       1.9579861
       5887.9884       1.8741535
       5888.8773       1.6831108
       5889.7662       1.6771209
       5890.6552       1.6467095
       5891.5441       1.6538930
       5892.4330       1.5290789
       5893.3219       1.7413656
       5894.2108       1.6289852
       5895.0997       1.9069412
       5895.9886       1.8737573
       5896.8776       1.9940028
       5897.7665       2.0056325
       5898.6554       2.1097729
       5899.5443       2.1480807
       5900.4332       1.9367651
       5901.3221       2.2361498
       5902.2111       2.4073604
       5903.1000       2.5088775
       5903.9889       2.2265200
       5904.8778       2.5016614
       5905.7667       2.6158463
       5906.6556       2.5703339
       5907.5445       2.6527476
       5908.4335       2.7146695
       5909.3224       2.6559243
       5910.2113       2.4947282
       5911.1002       2.6048598
       5911.9891       2.6873352
       5912.8780       2.6190513
       5913.7669       2.4306518
       5914.6559       2.6264550
       5915.5448       2.8207768
       5916.4337       2.7017277
       5917.3226       2.5871550
       5918.2115       2.6409358
       5919.1004       2.5414388
       5919.9893       2.4509421
       5920.8783       2.6317718
       5921.7672       2.5938276
       5922.6561       2.7252340
       5923.5450       2.5363198
       5924.4339       2.6906962
       5925.3228       2.4587352
       5926.2117       2.6240160
       5927.1007       2.7065267
       5927.9896       2.7075640
       5928.8785       2.6285647
       5929.7674       2.6648898
       5930.6563       2.6693096
       5931.5452       2.5661513
       5932.4341       2.6675002
       5933.3231       2.5990212
       5934.2120       2.5323012
       5935.1009       2.7696269
       5935.9898       2.6256516
       5936.8787       2.4951974
       5937.7676       2.5287642
       5938.6565       2.5604593
       5939.5455       2.5221248
       5940.4344       2.5834853
       5941.3233       2.7505428
       5942.2122       2.5898590
       5943.1011       2.6498418
       5943.9900       2.8534255
       5944.8789       2.6237041
       5945.7679       2.6014109
       5946.6568       2.4768678
       5947.5457       2.7027166
       5948.4346       2.6081799
       5949.3235       2.6545964
       5950.2124       2.6223256
       5951.1013       2.5709074
       5951.9903       2.7788174
       5952.8792       2.6075874
       5953.7681       2.7353891
       5954.6570       2.6752642
       5955.5459       2.7774272
       5956.4348       2.6572194
       5957.3237       2.7514935
       5958.2127       2.7385011
       5959.1016       2.5874546
       5959.9905       2.6949472
       5960.8794       2.6269045
       5961.7683       2.4915477
       5962.6572       2.5972035
       5963.5461       2.6411892
       5964.4351       2.5385386
       5965.3240       2.5553160
       5966.2129       2.6251721
       5967.1018       2.6388248
       5967.9907       2.7430505
       5968.8796       2.7976645
       5969.7685       2.6693378
       5970.6575       2.6601269
       5971.5464       2.7327586
       5972.4353       2.6976313
       5973.3242       2.5038114
       5974.2131       2.5614133
       5975.1020       2.5692859
       5975.9909       2.7427195
       5976.8799       2.5296139
       5977.7688       2.6736865
       5978.6577       2.6689090
       5979.5466       2.6726141
       5980.4355       2.6573456
       5981.3244       2.4831411
       5982.2133       2.6094727
       5983.1023       2.5709412
       5983.9912       2.6451565
       5984.8801       2.6548198
       5985.7690       2.5187306
       5986.6579       2.7184912
       5987.5468       2.5972089
       5988.4357       2.7078566
       5989.3247       2.6117460
       5990.2136       2.5967964
       5991.1025       2.5240874
       5991.9914       2.6633740
       5992.8803       2.6007737
       5993.7692       2.7443644
       5994.6581       2.7173628
       5995.5471       2.6587042
       5996.4360       2.6560004
       5997.3249       2.6473895
       5998.2138       2.5929887
       5999.1027       2.5283840
       5999.9916       2.7410650
       6000.8805       2.7217634
       6001.7695       2.9869892
       6002.6584       2.9211913
       6003.5473       2.7175131
       6004.4362       2.7245705
       6005.3251       2.5700708
       6006.2140       2.4614987
       6007.1029       2.5571670
       6007.9919       2.4326747
       6008.8808       2.5732446
       6009.7697       2.4704802
       6010.6586       2.4726909
       6011.5475       2.6325318
       6012.4364       2.5260089
       6013.3253       2.5595918
       6014.2143       2.5086293
       6015.1032       2.4952341
       6015.9921       2.5943402
       6016.8810       2.6013906
       6017.7699       2.5292441
       6018.6588       2.4470914
       6019.5477       2.5555915
       6020.4367       2.6648002
       6021.3256       2.5074327
       6022.2145       2.5192293
       6023.1034       2.5486173
       6023.9923       2.3817179
       6024.8812       2.5851018
       6025.7701       2.5994886
       6026.6591       2.5362339
       6027.5480       2.5208096
       6028.4369       2.5725419
       6029.3258       2.5048815
       6030.2147       2.5643634
       6031.1036       2.5966692
       6031.9925       2.4702595
       6032.8815       2.6055782
       6033.7704       2.6366188
       6034.6593       2.5539347
       6035.5482       2.5623335
       6036.4371       2.5550820
       6037.3260       2.5836132
       6038.2149       2.5484105
       6039.1039       2.5522846
       6039.9928       2.7049025
       6040.8817       2.6568058
       6041.7706       2.6335465
       6042.6595       2.7558337
       6043.5484       2.5941498
       6044.4373       2.6775119
       6045.3263       2.6233991
       6046.2152       2.7116166
       6047.1041       2.5800937
       6047.9930       2.5862260
       6048.8819       2.5983910
       6049.7708       2.5493762
       6050.6597       2.6140009
       6051.5487       2.6615064
       6052.4376       2.5210785
       6053.3265       2.6432382
       6054.2154       2.5988511
       6055.1043       2.4830777
       6055.9932       2.6642336
       6056.8821       2.6800987
       6057.7711       2.8437578
       6058.6600       2.7190769
       6059.5489       2.7697407
       6060.4378       2.6061155
       6061.3267       2.6144163
       6062.2156       2.7501277
       6063.1045       2.6926257
       6063.9935       2.5976315
       6064.8824       2.6377024
       6065.7713       2.6914040
       6066.6602       2.7504311
       6067.5491       2.7325124
       6068.4380       2.5983074
       6069.3269       2.7894490
       6070.2159       2.8473340
       6071.1048       2.7314560
       6071.9937       2.6627229
       6072.8826       2.7053360
       6073.7715       2.7031415
       6074.6604       2.5741456
       6075.5493       2.6363355
       6076.4383       2.4875843
       6077.3272       2.6370253
       6078.2161       2.5758531
       6079.1050       2.5398022
       6079.9939       2.6947396
       6080.8828       2.6750530
       6081.7717       2.5963895
       6082.6607       2.6391400
       6083.5496       2.6190128
       6084.4385       2.6324192
       6085.3274       2.5891125
       6086.2163       2.7248246
       6087.1052       2.6306658
       6087.9941       2.6216102
       6088.8831       2.6397796
       6089.7720       2.7390903
       6090.6609       2.6897062
       6091.5498       2.6918072
       6092.4387       2.6934777
       6093.3276       2.6840466
       6094.2165       2.6711652
       6095.1055       2.7033647
       6095.9944       2.6618079
       6096.8833       2.5434592
       6097.7722       2.6967707
       6098.6611       2.7561765
       6099.5500       2.6457279
       6100.4389       2.5869826
       6101.3279       2.8032228
       6102.2168       2.6534650
       6103.1057       2.6760081
       6103.9946       2.6625707
       6104.8835       2.7123348
       6105.7724       2.7261335
       6106.6613       2.6472108
       6107.5503       2.6239746
       6108.4392       2.7154532
       6109.3281       2.5704199
       6110.2170       2.6180088
       6111.1059       2.5644292
       6111.9948       2.7353427
       6112.8837       2.3657402
       6113.7727       2.6884720
       6114.6616       2.5193853
       6115.5505       2.5682583
       6116.4394       2.4971113
       6117.3283       2.7303932
       6118.2172       2.6278936
       6119.1061       2.7023608
       6119.9951       2.7481621
       6120.8840       2.5387828
       6121.7729       2.5816470
       6122.6618       2.5114966
       6123.5507       2.6052161
       6124.4396       2.7701906
       6125.3285       2.5023630
       6126.2175       2.6575776
       6127.1064       2.5809800
       6127.9953       2.3334989
       6128.8842       2.5629486
       6129.7731       2.6679226
       6130.6620       2.6464727
       6131.5509       2.7497039
       6132.4399       2.8418612
       6133.3288       2.5222762
       6134.2177       2.5016367
       6135.1066       2.6427494
       6135.9955       2.5703418
       6136.8844       2.5624135
       6137.7733       2.7261426
       6138.6623       2.6787779
       6139.5512       2.6094868
       6140.4401       2.5426090
       6141.3290       2.7657449
       6142.2179       2.8109960
       6143.1068       2.9259408
       6143.9957       2.7413828
       6144.8847       2.6992920
       6145.7736       2.6715043
       6146.6625       2.7045857
       6147.5514       2.6839610
       6148.4403       2.8017156
       6149.3292       2.8306877
       6150.2181       2.6960486
       6151.1071       2.7292332
       6151.9960       2.7987518
       6152.8849       2.7824832
       6153.7738       2.7597950
       6154.6627       2.7375089
       6155.5516       2.6062769
       6156.4405       2.4486786
       6157.3295       2.6783418
       6158.2184       2.7134578
       6159.1073       2.3536556
       6159.9962       2.2343624
       6160.8851       2.6362989
       6161.7740       2.4052979
       6162.6629       2.7548355
       6163.5519       2.4954619
       6164.4408       2.2604444
       6165.3297       2.7013706
       6166.2186       2.4345393
       6167.1075       2.6843035
       6167.9964       2.3931331
       6168.8854       2.4296322
       6169.7743       2.6203703
       6170.6632       2.7394066
       6171.5521       2.6556597
       6172.4410       2.5712277
       6173.3299       2.5213867
       6174.2188       2.6471307
       6175.1078       2.6749347
       6175.9967       2.7570575
       6176.8856       2.6924706
       6177.7745       2.7357418
       6178.6634       2.6571131
       6179.5523       2.6142355
       6180.4412       2.7278786
       6181.3302       2.5042425
       6182.2191       2.5449298
       6183.1080       2.6887700
       6183.9969       2.6132820
       6184.8858       2.7897107
       6185.7747       2.7458476
       6186.6636       2.8099238
       6187.5526       2.6313645
       6188.4415       2.6132266
       6189.3304       2.6871310
       6190.2193       2.6176523
       6191.1082       2.6028822
       6191.9971       2.7221728
       6192.8860       2.8354410
       6193.7750       2.6890909
       6194.6639       2.5237169
       6195.5528       2.5845332
       6196.4417       2.5928146
       6197.3306       2.7982314
       6198.2195       2.6092559
       6199.1084       2.5275965
       6199.9974       2.4744616
       6200.8863       2.8166921
       6201.7752       2.7289962
       6202.6641       2.6316729
       6203.5530       2.8652595
       6204.4419       2.6588755
       6205.3308       2.7479613
       6206.2198       2.7056743
       6207.1087       2.7243214
       6207.9976       2.7086247
       6208.8865       2.6824191
       6209.7754       2.5944041
       6210.6643       2.7596290
       6211.5532       2.6303790
       6212.4422       2.5849802
       6213.3311       2.6595615
       6214.2200       2.6951132
       6215.1089       2.9497640
       6215.9978       2.7137730
       6216.8867       2.7342233
       6217.7756       2.7517841
       6218.6646       2.7105360
       6219.5535       2.7556139
       6220.4424       2.6793171
       6221.3313       2.5475344
       6222.2202       2.3758894
       6223.1091       2.6683357
       6223.9980       2.7935505
       6224.8870       2.4770735
       6225.7759       2.7559086
       6226.6648       2.7654210
       6227.5537       2.5249030
       6228.4426       3.0046245
       6229.3315       2.8064533
       6230.2204       2.6500915
       6231.1094       2.5963713
       6231.9983       2.4859605
       6232.8872       2.5421187
       6233.7761       2.6945691
       6234.6650       2.6090155
       6235.5539       2.6090917
       6236.4428       2.7008187
       6237.3318       2.5304443
       6238.2207       2.6094950
       6239.1096       2.5919643
       6239.9985       2.7032713
       6240.8874       2.6969198
       6241.7763       2.5339273
       6242.6652       2.5282273
       6243.5542       2.7188593
       6244.4431       2.7041134
       6245.3320       2.6788197
       6246.2209       2.5748952
       6247.1098       2.6543888
       6247.9987       2.5848430
       6248.8876       2.5526299
       6249.7766       2.5898727
       6250.6655       2.7138699
       6251.5544       2.6497571
       6252.4433       2.6248562
       6253.3322       2.5068478
       6254.2211       2.7889153
       6255.1100       2.7230166
       6255.9990       2.6526504
       6256.8879       2.8540545
       6257.7768       2.6143054
       6258.6657       2.4769693
       6259.5546       2.5529357
       6260.4435       2.5356326
       6261.3324       2.6264961
       6262.2214       2.6269405
       6263.1103       2.7129259
       6263.9992       2.6353431
       6264.8881       2.6295508
       6265.7770       2.7145248
       6266.6659       2.6418800
       6267.5548       2.8723650
       6268.4438       2.6420059
       6269.3327       2.7569754
       6270.2216       2.7461097
       6271.1105       2.6265984
       6271.9994       2.7695522
       6272.8883       2.6053400
       6273.7772       2.6591254
       6274.6662       2.8253385
       6275.5551       2.6186095
       6276.4440       2.6134596
       6277.3329       2.7852187
       6278.2218       2.5769113
       6279.1107       2.6963616
       6279.9996       2.7661001
       6280.8886       2.6788718
       6281.7775       2.7522814
       6282.6664       2.7110825
       6283.5553       2.7530348
       6284.4442       2.7366751
       6285.3331       2.6436488
       6286.2220       2.6057002
       6287.1110       2.6750582
       6287.9999       2.7247342
       6288.8888       2.7746086
       6289.7777       2.6502823
       6290.6666       2.8286322
       6291.5555       2.7323424
       6292.4444       2.9606673
       6293.3334       2.8760865
       6294.2223       2.9253275
       6295.1112       3.0492160
       6296.0001       2.9333183
       6296.8890       2.7946609
       6297.7779       2.8472059
       6298.6668       3.0233322
       6299.5558       2.9499010
       6300.4447       2.9554688
       6301.3336       3.0076437
       6302.2225       2.8825078
       6303.1114       2.8978216
       6304.0003       2.9146862
       6304.8892       2.9810344
       6305.7782       3.0139843
       6306.6671       3.1156080
       6307.5560       2.9721067
       6308.4449       2.8918970
       6309.3338       2.9484686
       6310.2227       2.6687211
       6311.1116       2.7716331
       6312.0006       2.6910450
       6312.8895       2.8166654
       6313.7784       2.8125888
       6314.6673       2.8643585
       6315.5562       2.7557053
       6316.4451       2.6840057
       6317.3340       2.7242417
       6318.2230       2.7868173
       6319.1119       2.5720134
       6320.0008       2.7609221
       6320.8897       2.6551096
       6321.7786       2.7504779
       6322.6675       2.7159919
       6323.5564       2.7909975
       6324.4454       2.7241906
       6325.3343       2.7166014
       6326.2232       2.8322358
       6327.1121       2.7535225
       6328.0010       2.7513092
       6328.8899       2.7515307
       6329.7788       2.6942247
       6330.6678       2.7230320
       6331.5567       2.7083295
       6332.4456       2.8352720
       6333.3345       2.7906189
       6334.2234       2.6399660
       6335.1123       2.7294526
       6336.0012       2.7480781
       6336.8902       2.8411534
       6337.7791       2.8863327
       6338.6680       2.7430403
       6339.5569       2.7373450
       6340.4458       2.8063004
       6341.3347       2.7647687
       6342.2236       2.7175263
       6343.1126       2.8014276
       6344.0015       2.6682268
       6344.8904       2.8503999
       6345.7793       2.7488748
       6346.6682       2.7486143
       6347.5571       2.7753613
       6348.4460       2.8363689
       6349.3350       2.7905179
       6350.2239       2.8670769
       6351.1128       2.8037836
       6352.0017       2.7956690
       6352.8906       2.8225152
       6353.7795       2.8218901
       6354.6684       2.7511777
       6355.5574       2.8551348
       6356.4463       2.7740000
       6357.3352       2.9191060
       6358.2241       2.9201778
       6359.1130       2.8832667
       6360.0019       2.9498598
       6360.8908       2.9857589
       6361.7798       2.7764166
       6362.6687       2.6986867
       6363.5576       2.7720817
       6364.4465       2.9496660
       6365.3354       2.8885572
       6366.2243       3.0120826
       6367.1132       2.9232787
       6368.0022       2.9732725
       6368.8911       3.0549898
       6369.7800       3.0522203
       6370.6689       2.8170292
       6371.5578       3.0163701
       6372.4467       2.8141457
       6373.3356       3.1901571
       6374.2246       2.9932456
       6375.1135       3.2273324
       6376.0024       3.1195868
       6376.8913       3.1956317
       6377.7802       2.9107524
       6378.6691       2.8288234
       6379.5580       2.7131848
       6380.4470       2.8298355
       6381.3359       2.9584979
       6382.2248       3.0175502
       6383.1137       2.8411851
       6384.0026       2.9055738
       6384.8915       3.0466349
       6385.7804       2.8942939
       6386.6694       2.8229619
       6387.5583       3.0444995
       6388.4472       3.0554711
       6389.3361       2.8807835
       6390.2250       2.8596112
       6391.1139       3.0010937
       6392.0028       2.9999090
       6392.8918       2.9695702
       6393.7807       3.0338358
       6394.6696       2.9485844
       6395.5585       2.8478442
       6396.4474       3.0480892
       6397.3363       2.8472045
       6398.2252       2.8067582
       6399.1142       3.0497529
       6400.0031       2.7520074
       6400.8920       3.0191374
       6401.7809       2.9373003
       6402.6698       3.0781120
       6403.5587       2.8925194
       6404.4476       2.8627880
       6405.3366       2.8492903
       6406.2255       2.8273056
       6407.1144       2.8798296
       6408.0033       2.8112417
       6408.8922       2.8042343
       6409.7811       2.7275455
       6410.6700       2.8537661
       6411.5590       3.0427567
       6412.4479       2.7946280
       6413.3368       2.8631405
       6414.2257       2.9100831
       6415.1146       2.8415558
       6416.0035       2.9751133
       6416.8924       2.8400771
       6417.7814       2.8714705
       6418.6703       2.8985418
       6419.5592       2.7906195
       6420.4481       2.8540841
       6421.3370       2.8764667
       6422.2259       2.7090869
       6423.1148       2.8564852
       6424.0038       2.8580710
       6424.8927       2.8087974
       6425.7816       2.9324958
       6426.6705       2.9532119
       6427.5594       2.9545609
       6428.4483       2.9928056
       6429.3372       3.0229153
       6430.2262       2.8942079
       6431.1151       3.0103230
       6432.0040       3.0367964
       6432.8929       2.8247948
       6433.7818       2.9306251
       6434.6707       2.7650684
       6435.5597       2.9917018
       6436.4486       2.9451513
       6437.3375       2.8661694
       6438.2264       2.9364496
       6439.1153       2.9400067
       6440.0042       2.8099206
       6440.8931       2.8775568
       6441.7821       2.8838569
       6442.6710       2.8732525
       6443.5599       3.0707173
       6444.4488       3.0248928
       6445.3377       2.9661321
       6446.2266       2.9218938
       6447.1155       3.0627260
       6448.0045       3.0211699
       6448.8934       2.9519474
       6449.7823       3.0379664
       6450.6712       2.9814213
       6451.5601       2.8287729
       6452.4490       2.9952172
       6453.3379       2.8865224
       6454.2269       2.8172997
       6455.1158       2.7712639
       6456.0047       2.7856777
       6456.8936       2.8621685
       6457.7825       3.0455259
       6458.6714       2.9877611
       6459.5603       2.9351972
       6460.4493       2.9372901
       6461.3382       3.0239196
       6462.2271       2.9992167
       6463.1160       2.9462398
       6464.0049       2.9535380
       6464.8938       2.8763751
       6465.7827       2.8229474
       6466.6717       2.8413528
       6467.5606       2.7521050
       6468.4495       2.8800378
       6469.3384       2.6537033
       6470.2273       3.1154780
       6471.1162       2.9542892
       6472.0051       2.8434565
       6472.8941       2.8704817
       6473.7830       2.9369183
       6474.6719       3.2687299
       6475.5608       3.0536534
       6476.4497       3.0815293
       6477.3386       2.9174082
       6478.2275       3.0690705
       6479.1165       2.9280058
       6480.0054       2.8980642
       6480.8943       2.6624621
       6481.7832       2.6315225
       6482.6721       2.9692600
       6483.5610       2.8845343
       6484.4499       3.2053867
       6485.3389       3.0872741
       6486.2278       3.0941445
       6487.1167       3.0861377
       6488.0056       3.0237453
       6488.8945       2.8943940
       6489.7834       3.0427383
       6490.6723       2.8869454
       6491.5613       2.9462214
       6492.4502       2.8486120
       6493.3391       2.6659489
       6494.2280       2.8642877
       6495.1169       2.9607891
       6496.0058       2.9039974
       6496.8947       2.8967018
       6497.7837       2.9090327
       6498.6726       2.8461901
       6499.5615       2.8053772
       6500.4504       2.9767228
       6501.3393       2.8407815
       6502.2282       2.8571704
       6503.1171       2.7942572
       6504.0061       2.9052308
       6504.8950       2.9838068
       6505.7839       2.9329032
       6506.6728       3.0148215
       6507.5617       3.1177254
       6508.4506       3.0765504
       6509.3395       3.0039346
       6510.2285       3.0517842
       6511.1174       3.1591124
       6512.0063       3.0874982
       6512.8952       3.0432512
       6513.7841       3.2589756
       6514.6730       2.9543545
       6515.5619       2.6409455
       6516.4509       2.6381919
       6517.3398       2.8205364
       6518.2287       2.5240257
       6519.1176       2.6807709
       6520.0065       3.1492035
       6520.8954       2.7377738
       6521.7843       3.5711021
       6522.6733       3.2230113
       6523.5622       2.6303737
       6524.4511       3.0161449
       6525.3400       2.8375985
       6526.2289       3.2008599
       6527.1178       2.7389822
       6528.0067       3.0684877
       6528.8957       3.4191181
       6529.7846       3.2490476
       6530.6735       2.8958306
       6531.5624       2.9478958
       6532.4513       2.9589246
       6533.3402       2.9898647
       6534.2291       2.9987292
       6535.1181       3.1927973
       6536.0070       3.2262585
       6536.8959       3.2520526
       6537.7848       3.2589245
       6538.6737       3.2778437
       6539.5626       3.4538403
       6540.4515       3.4865376
       6541.3405       3.4710519
       6542.2294       3.6177785
       6543.1183       3.7559401
       6544.0072       3.7844730
       6544.8961       3.9116079
       6545.7850       3.8515987
       6546.6739       3.6080247
       6547.5629       3.7296046
       6548.4518       3.5145432
       6549.3407       3.7575171
       6550.2296       3.6686931
       6551.1185       4.1483116
       6552.0074       4.3072901
       6552.8963       4.1218619
       6553.7853       4.2911304
       6554.6742       4.3793046
       6555.5631       4.6957326
       6556.4520       5.1988996
       6557.3409       5.5329555
       6558.2298       5.9609111
       6559.1187       6.1607373
       6560.0077       6.4720198
       6560.8966       6.9292528
       6561.7855       6.5901567
       6562.6744       6.8265010
       6563.5633       7.2010216
       6564.4522       7.7516321
       6565.3411       8.2267562
       6566.2301       8.2032943
       6567.1190       8.0775516
       6568.0079       7.5118305
       6568.8968       6.7286680
       6569.7857       6.2103639
       6570.6746       5.6980715
       6571.5635       5.4924230
       6572.4525       5.0665925
       6573.3414       4.1859496
       6574.2303       3.8782438
       6575.1192       3.8127903
       6576.0081       3.9703368
       6576.8970       4.2902178
       6577.7859       4.7388092
       6578.6749       5.1351874
       6579.5638       5.1600682
       6580.4527       5.5133594
       6581.3416       5.6468582
       6582.2305       5.6994121
       6583.1194       5.8717914
       6584.0083       5.8514405
       6584.8973       5.3975117
       6585.7862       5.5089658
       6586.6751       6.1254158
       6587.5640       6.1491522
       6588.4529       5.6904416
       6589.3418       5.4664890
       6590.2307       5.7072913
       6591.1197       5.1639310
       6592.0086       4.9150870
       6592.8975       4.4424859
       6593.7864       4.0944875
       6594.6753       3.7454146
       6595.5642       3.4711861
       6596.4531       3.4571335
       6597.3421       3.3241020
       6598.2310       3.2455070
       6599.1199       3.2432951
       6600.0088       3.1465510
       6600.8977       3.0965203
       6601.7866       3.1146250
       6602.6755       3.0998012
       6603.5645       3.1679074
       6604.4534       3.1511606
       6605.3423       3.2191689
       6606.2312       3.1024056
       6607.1201       3.2669996
       6608.0090       3.4517046
       6608.8979       3.1466795
       6609.7869       3.0909233
       6610.6758       3.2807428
       6611.5647       3.1980150
       6612.4536       3.0706454
       6613.3425       2.7089104
       6614.2314       2.5915706
       6615.1203       2.8705422
       6616.0093       2.9814311
       6616.8982       3.1771053
       6617.7871       3.1793339
       6618.6760       3.6227248
       6619.5649       3.3879582
       6620.4538       3.0908699
       6621.3427       3.1452256
       6622.2317       3.1949818
       6623.1206       3.1204139
       6624.0095       3.2154743
       6624.8984       3.2131313
       6625.7873       3.0848821
       6626.6762       3.2039242
       6627.5651       3.1334838
       6628.4541       3.1837414
       6629.3430       3.2615585
       6630.2319       3.3630085
       6631.1208       3.0483476
       6632.0097       3.2481387
       6632.8986       3.1904168
       6633.7875       3.2184538
       6634.6765       3.0473187
       6635.5654       3.1631332
       6636.4543       2.8459482
       6637.3432       2.8785247
       6638.2321       2.8933644
       6639.1210       2.7815026
       6640.0099       2.9369916
       6640.8989       2.8703296
       6641.7878       3.1669888
       6642.6767       3.0802688
       6643.5656       3.1105481
       6644.4545       3.2543837
       6645.3434       2.8517644
       6646.2323       2.7896255
       6647.1213       3.2273997
       6648.0102       3.1663774
       6648.8991       2.9584067
       6649.7880       3.3234777
       6650.6769       3.3477454
       6651.5658       3.2082268
       6652.4547       3.3278383
       6653.3437       3.2464104
       6654.2326       3.2521724
       6655.1215       3.4325049
       6656.0104       3.4021358
       6656.8993       3.4517437
       6657.7882       3.2820611
       6658.6771       3.0915175
       6659.5661       3.0782758
       6660.4550       3.0799043
       6661.3439       3.2154990
       6662.2328       3.2113325
       6663.1217       3.3734683
       6664.0106       3.2102378
       6664.8995       2.9915622
       6665.7885       3.1776096
       6666.6774       3.1920663
       6667.5663       3.1698473
       6668.4552       3.2536114
       6669.3441       3.2981294
       6670.2330       3.3031632
       6671.1219       3.3143093
       6672.0109       3.3328466
       6672.8998       3.2810762
       6673.7887       3.3931909
       6674.6776       3.4007505
       6675.5665       3.1370232
       6676.4554       3.3287317
       6677.3443       3.2862144
       6678.2333       3.1968151
       6679.1222       3.2803289
       6680.0111       3.2041114
       6680.9000       3.3189949
       6681.7889       3.2009702
       6682.6778       3.3070616
       6683.5667       3.2491577
       6684.4557       3.3753501
       6685.3446       3.3740440
       6686.2335       3.4869262
       6687.1224       3.3584733
       6688.0113       3.3388826
       6688.9002       3.2973164
       6689.7891       3.4169647
       6690.6781       3.2431931
       6691.5670       3.3511016
       6692.4559       3.3329648
       6693.3448       3.2520294
       6694.2337       3.1954896
       6695.1226       3.3093175
       6696.0116       3.2178355
       6696.9005       3.1707797
       6697.7894       3.1398647
       6698.6783       3.1047213
       6699.5672       3.1251155
       6700.4561       3.1148983
       6701.3450       3.1406007
       6702.2340       3.3245498
       6703.1229       3.2581725
       6704.0118       3.1974711
       6704.9007       3.2243431
       6705.7896       3.3342002
       6706.6785       3.3969151
       6707.5674       3.4773226
       6708.4564       3.4454484
       6709.3453       3.3825635
       6710.2342       3.6436850
       6711.1231       3.6427257
       6712.0120       3.7817682
       6712.9009       3.9487837
       6713.7898       3.9263799
       6714.6788       4.1098507
       6715.5677       3.9892332
       6716.4566       4.3128521
       6717.3455       4.4408678
       6718.2344       4.3529364
       6719.1233       4.4619968
       6720.0122       4.3799914
       6720.9012       4.3577164
       6721.7901       4.3675175
       6722.6790       4.3167246
       6723.5679       4.3158303
       6724.4568       4.4317928
       6725.3457       4.3221299
       6726.2346       4.4347248
       6727.1236       4.1648785
       6728.0125       4.1756134
       6728.9014       4.1554735
       6729.7903       4.2899371
       6730.6792       4.1625877
       6731.5681       4.2302586
       6732.4570       4.2894728
       6733.3460       4.1096956
       6734.2349       4.0526638
       6735.1238       4.2148542
       6736.0127       4.0612064
       6736.9016       3.9668304
       6737.7905       3.9693647
       6738.6794       4.0293420
       6739.5684       3.9429002
       6740.4573       3.8380529
       6741.3462       3.5447347
       6742.2351       3.3927069
       6743.1240       3.2986141
       6744.0129       3.3502522
       6744.9018       3.2386392
       6745.7908       3.2334395
       6746.6797       3.2057378
       6747.5686       3.2202167
       6748.4575       3.1786873
       6749.3464       3.2485228
       6750.2353       3.3913221
       6751.1242       3.3336426
       6752.0132       3.3463373
       6752.9021       3.3723511
       6753.7910       3.3417281
       6754.6799       3.2990903
       6755.5688       3.3669663
       6756.4577       3.4481116
       6757.3466       3.3494673
       6758.2356       3.2547497
       6759.1245       3.2273175
       6760.0134       3.4573859
       6760.9023       3.3012688
       6761.7912       3.2034233
       6762.6801       3.1524827
       6763.5690       3.3413389
       6764.4580       3.2694738
       6765.3469       3.3065359
       6766.2358       3.3651081
       6767.1247       3.4289896
       6768.0136       3.3707155
       6768.9025       3.3761210
       6769.7914       3.3435480
       6770.6804       3.4485171
       6771.5693       3.4206157
       6772.4582       3.2195204
       6773.3471       3.3281374
       6774.2360       3.4666492
       6775.1249       3.2686068
       6776.0138       3.0618902
       6776.9028       3.3249907
       6777.7917       3.3499514
       6778.6806       3.4132345
       6779.5695       3.4000324
       6780.4584       3.3597948
       6781.3473       3.4607158
       6782.2362       3.4570995
       6783.1252       3.4192080
       6784.0141       3.3735468
       6784.9030       3.4750988
       6785.7919       3.4950045
       6786.6808       3.4600537
       6787.5697       3.5256416
       6788.4586       3.6109586
       6789.3476       3.4938554
       6790.2365       3.3655478
       6791.1254       3.1964352
       6792.0143       3.4473788
       6792.9032       3.4138229
       6793.7921       3.3966564
       6794.6810       3.6855441
       6795.5700       3.6107676
       6796.4589       3.4280916
       6797.3478       3.5289498
       6798.2367       3.5307331
       6799.1256       3.4480395
       6800.0145       3.3255669
       6800.9034       3.5164465
       6801.7924       3.6719867
       6802.6813       3.5361515
       6803.5702       3.5250203
       6804.4591       3.5890043
       6805.3480       3.5485284
       6806.2369       3.4507738
       6807.1258       3.3006494
       6808.0148       3.5111151
       6808.9037       3.3753225
       6809.7926       3.6129180
       6810.6815       3.4989676
       6811.5704       3.7164112
       6812.4593       3.4743923
       6813.3482       3.4640753
       6814.2372       3.5007016
       6815.1261       3.6058273
       6816.0150       3.5892078
       6816.9039       3.6168585
       6817.7928       3.6537284
       6818.6817       3.4743931
       6819.5706       3.5437092
       6820.4596       3.5603331
       6821.3485       3.5358513
       6822.2374       3.4870669
       6823.1263       3.4528843
       6824.0152       3.4610706
       6824.9041       3.5082785
       6825.7930       3.4783295
       6826.6820       3.4872083
       6827.5709       3.7097009
       6828.4598       3.6639376
       6829.3487       3.4669147
       6830.2376       3.5810168
       6831.1265       3.5782351
       6832.0154       3.4881612
       6832.9044       3.6355745
       6833.7933       3.6804581
       6834.6822       3.5379903
       6835.5711       3.4826251
       6836.4600       3.4746507
       6837.3489       3.5686517
       6838.2378       3.4899186
       6839.1268       3.5304731
       6840.0157       3.4310470
       6840.9046       3.4122128
       6841.7935       3.4298683
       6842.6824       3.5102677
       6843.5713       3.3438178
       6844.4602       3.4954414
       6845.3492       3.6427203
       6846.2381       3.5020138
       6847.1270       3.5931351
       6848.0159       3.5939216
       6848.9048       3.3744474
       6849.7937       3.5265811
       6850.6826       3.5083848
       6851.5716       3.6213743
       6852.4605       3.4670636
       6853.3494       3.5563927
       6854.2383       3.3531929
       6855.1272       3.5343227
       6856.0161       3.4525956
       6856.9050       3.3403285
       6857.7940       3.4747568
       6858.6829       3.4780329
       6859.5718       3.5816040
       6860.4607       3.4695538
       6861.3496       3.6051229
       6862.2385       3.4281692
       6863.1274       3.6986547
       6864.0164       3.4624473
       6864.9053       3.5068507
       6865.7942       3.5917556
       6866.6831       3.4113089
       6867.5720       3.4393413
       6868.4609       3.3766058
       6869.3498       3.2871120
       6870.2388       3.4857196
       6871.1277       3.1838786
       6872.0166       3.1433532
       6872.9055       3.0774392
       6873.7944       3.1095044
       6874.6833       2.9604285
       6875.5722       3.2267344
       6876.4612       2.9863454
       6877.3501       2.5724275
       6878.2390       3.5416797
       6879.1279       2.7835067
       6880.0168       3.2560014
       6880.9057       3.1013357
       6881.7946       2.9754772
       6882.6836       3.5216041
       6883.5725       3.0514106
       6884.4614       3.1329923
       6885.3503       2.8666341
       6886.2392       2.6201511
       6887.1281       2.5133822
       6888.0170       2.8129703
       6888.9060       2.5296564
       6889.7949       2.9681039
       6890.6838       3.3527311
       6891.5727       3.5080282
       6892.4616       3.4588493
       6893.3505       3.2492764
       6894.2394       3.0957941
       6895.1284       3.1558882
       6896.0173       2.7336157
       6896.9062       2.8702370
       6897.7951       2.8402747
       6898.6840       2.8681957
       6899.5729       2.8036993
       6900.4618       2.6559963
       6901.3508       2.6338025
       6902.2397       2.4186206
       6903.1286       2.4487967
       6904.0175       2.6925336
       6904.9064       3.1104174
       6905.7953       3.4393632
       6906.6842       3.5214482
       6907.5732       3.3832448
       6908.4621       3.1681743
       6909.3510       3.0134622
       6910.2399       2.7583782
       6911.1288       2.4857950
       6912.0177       2.6151952
       6912.9066       2.8539158
       6913.7956       2.9578954
       6914.6845       3.0257206
       6915.5734       3.1054856
       6916.4623       3.2017583
       6917.3512       2.9797576
       6918.2401       3.1706193
       6919.1290       2.9541886
       6920.0180       2.7687492
       6920.9069       2.7886635
       6921.7958       2.5992741
       6922.6847       2.0134851
       6923.5736       2.0015098
       6924.4625       2.5835474
       6925.3514       2.7433849
       6926.2404       3.2929951
       6927.1293       2.5275751
       6928.0182       2.9452467
       6928.9071       3.1227808
       6929.7960       3.4751533
       6930.6849       3.2943256
       6931.5738       3.1749467
       6932.4628       3.0190812
       6933.3517       3.2609905
       6934.2406       3.2981249
       6935.1295       3.0322754
       6936.0184       3.0797898
       6936.9073       3.4782829
       6937.7962       3.5842123
       6938.6852       3.8079501
       6939.5741       3.6026757
       6940.4630       3.6846799
       6941.3519       3.5043504
       6942.2408       3.5285242
       6943.1297       3.1597099
       6944.0186       3.2399644
       6944.9076       3.3281742
       6945.7965       3.6073590
       6946.6854       3.5954171
       6947.5743       3.3511510
       6948.4632       3.5343240
       6949.3521       3.3826866
       6950.2410       3.4038920
       6951.1300       3.2627388
       6952.0189       3.4320576
       6952.9078       3.4004100
       6953.7967       3.5147663
       6954.6856       3.5096126
       6955.5745       3.4218286
       6956.4634       3.2990164
       6957.3524       3.2226637
       6958.2413       3.2709784
       6959.1302       2.8942972
       6960.0191       3.4434034
       6960.9080       3.4215100
       6961.7969       3.4478197
       6962.6859       3.1307416
       6963.5748       3.0155965
       6964.4637       2.8551802
       6965.3526       2.7992860
       6966.2415       2.8664234
       6967.1304       3.1273314
       6968.0193       3.1595956
       6968.9083       3.3171503
       6969.7972       3.4205257
       6970.6861       2.9702060
       6971.5750       2.4790644
       6972.4639       2.5052578
       6973.3528       2.4621660
       6974.2417       2.2893961
       6975.1307       2.6701841
       6976.0196       3.3153719
       6976.9085       3.5709525
       6977.7974       3.3184402
       6978.6863       3.5688811
       6979.5752       3.6844644
       6980.4641       3.5129521
       6981.3531       3.4371103
       6982.2420       3.3763971
       6983.1309       3.3620510
       6984.0198       3.3206551
       6984.9087       3.0316281
       6985.7976       2.8901711
       6986.6865       3.2136705
       6987.5755       3.0200328
       6988.4644       2.6830801
       6989.3533       3.2592734
       6990.2422       2.8974401
       6991.1311       3.4777344
       6992.0200       3.4436532
       6992.9089       3.5126955
       6993.7979       3.4691511
       6994.6868       3.4640720
       6995.5757       3.4452256
       6996.4646       3.6917383
       6997.3535       3.4017075
       6998.2424       3.2120179
       6999.1313       2.8278551
       7000.0203       2.7172930
       7000.9092       2.4697924
       7001.7981       3.2955006
       7002.6870       3.7324710
       7003.5759       3.1646767
       7004.4648       3.2492648
       7005.3537       3.0725848
       7006.2427       3.1723437
       7007.1316       3.2236465
       7008.0205       3.3486359
       7008.9094       3.4788997
       7009.7983       3.7097398
       7010.6872       3.6668045
       7011.5761       3.4429890
       7012.4651       3.1898903
       7013.3540       3.0397573
       7014.2429       3.0689836
       7015.1318       2.9962514
       7016.0207       2.9865496
       7016.9096       2.9945724
       7017.7985       2.7720811
       7018.6875       2.4352390
       7019.5764       2.6250169
       7020.4653       3.2152840
       7021.3542       3.0454220
       7022.2431       3.7003638
       7023.1320       3.7712326
       7024.0209       3.7685286
       7024.9099       3.7431343
       7025.7988       3.6990497
       7026.6877       3.7807511
       7027.5766       3.7301376
       7028.4655       3.6967429
       7029.3544       3.1186485
       7030.2433       3.0127364
       7031.1323       3.1643525
       7032.0212       2.6262566
       7032.9101       3.2607020
       7033.7990       3.0839897
       7034.6879       3.4249533
       7035.5768       3.6915002
       7036.4657       3.6848161
       7037.3547       3.3685853
       7038.2436       3.3045821
       7039.1325       3.3739318
       7040.0214       3.4146423
       7040.9103       3.7719392
       7041.7992       3.7892810
       7042.6881       3.6890890
       7043.5771       3.6070197
       7044.4660       3.9147469
       7045.3549       3.8174665
       7046.2438       3.6818481
       7047.1327       3.6403999
       7048.0216       3.5714158
       7048.9105       3.5250247
       7049.7995       3.5166779
       7050.6884       3.3377736
       7051.5773       3.3173062
       7052.4662       3.2736559
       7053.3551       3.3529873
       7054.2440       3.5453741
       7055.1329       3.4732279
       7056.0219       3.5850218
       7056.9108       3.4005879
       7057.7997       3.6152799
       7058.6886       3.5512783
       7059.5775       3.3133668
       7060.4664       3.6033566
       7061.3553       3.4627981
       7062.2443       3.4536207
       7063.1332       3.3821996
       7064.0221       3.4168937
       7064.9110       3.3486138
       7065.7999       3.1638468
       7066.6888       3.0696824
       7067.5777       2.6232841
       7068.4667       3.1735113
       7069.3556       3.2307049
       7070.2445       3.3711539
       7071.1334       3.8257231
       7072.0223       3.7455629
       7072.9112       3.8725420
       7073.8001       3.6799924
       7074.6891       3.6893338
       7075.5780       3.6782930
       7076.4669       3.5664869
       7077.3558       3.4779551
       7078.2447       3.2144929
       7079.1336       3.3669013
       7080.0225       3.4789119
       7080.9115       3.5645467
       7081.8004       3.6447712
       7082.6893       3.6169349
       7083.5782       3.5161710
       7084.4671       3.4724973
       7085.3560       3.4374780
       7086.2449       3.3711764
       7087.1339       3.4231637
       7088.0228       3.3806891
       7088.9117       3.4575266
       7089.8006       3.4410837
       7090.6895       3.3646761
       7091.5784       3.4733007
       7092.4673       3.5829019
       7093.3563       3.6113418
       7094.2452       3.6093821
       7095.1341       3.5043248
       7096.0230       3.3009496
       7096.9119       3.1933780
       7097.8008       3.4730767
       7098.6897       3.2857650
       7099.5787       3.3322499
       7100.4676       3.4058868
       7101.3565       3.6009858
       7102.2454       3.4217611
       7103.1343       3.5776433
       7104.0232       3.6640039
       7104.9121       3.6495675
       7105.8011       3.5485262
       7106.6900       3.1881847
       7107.5789       3.3221323
       7108.4678       3.0858695
       7109.3567       3.2220350
       7110.2456       3.6434452
       7111.1345       3.2880247
       7112.0235       3.4693225
       7112.9124       3.4060542
       7113.8013       3.4805131
       7114.6902       3.4958203
       7115.5791       3.5423240
       7116.4680       3.3299080
       7117.3569       3.6362175
       7118.2459       3.5177805
       7119.1348       3.4675841
       7120.0237       3.4546976
       7120.9126       3.4167956
       7121.8015       3.4545823
       7122.6904       3.3560208
       7123.5793       3.4790592
       7124.4683       3.5367718
       7125.3572       3.4422318
       7126.2461       3.4775015
       7127.1350       3.4911380
       7128.0239       3.3378711
       7128.9128       3.4508767
       7129.8017       3.3906001
       7130.6907       3.5573080
       7131.5796       3.5167436
       7132.4685       3.3698064
       7133.3574       3.4988617
       7134.2463       3.6268072
       7135.1352       3.5245684
       7136.0241       3.7026458
       7136.9131       3.4594530
       7137.8020       3.5314264
       7138.6909       3.5564431
       7139.5798       3.3845218
       7140.4687       3.5483422
       7141.3576       3.5199475
       7142.2465       3.6184008
       7143.1355       3.5204674
       7144.0244       3.3867712
       7144.9133       3.5850542
       7145.8022       3.5354891
       7146.6911       3.5743798
       7147.5800       3.6320603
       7148.4689       3.7942040
       7149.3579       3.6091446
       7150.2468       3.5115684
       7151.1357       3.4913157
       7152.0246       3.2842907
       7152.9135       3.2307061
       7153.8024       3.5891914
       7154.6913       3.3071730
       7155.5803       3.7046073
       7156.4692       3.7466276
       7157.3581       3.5050072
       7158.2470       3.7888863
       7159.1359       3.4998787
       7160.0248       3.5867519
       7160.9137       3.2955611
       7161.8027       3.8453181
       7162.6916       3.6315152
       7163.5805       3.5206792
       7164.4694       3.4637671
       7165.3583       3.3051698
       7166.2472       3.8278925
       7167.1361       2.9246329
       7168.0251       3.4345376
       7168.9140       3.4596811
       7169.8029       3.9901389
       7170.6918       3.3502098
       7171.5807       3.5863751
       7172.4696       3.5694637
       7173.3585       3.6774134
       7174.2475       3.7953341
       7175.1364       3.4217592
       7176.0253       3.4360458
       7176.9142       3.4767570
       7177.8031       3.6134667
       7178.6920       3.4696139
       7179.5809       3.7877912
       7180.4699       3.3824632
       7181.3588       3.6280996
       7182.2477       3.6849274
       7183.1366       3.4773661
       7184.0255       3.9043745
       7184.9144       3.3510198
       7185.8033       3.7011420
       7186.6923       3.5765782
       7187.5812       3.5157170
       7188.4701       3.6729612
       7189.3590       3.4225771
       7190.2479       3.5841401
       7191.1368       3.5273548
       7192.0257       3.5131036
       7192.9147       3.5091019
       7193.8036       3.0817942
       7194.6925       3.5565071
       7195.5814       3.3775940
       7196.4703       3.5309480
       7197.3592       3.1336086
       7198.2481       3.8368164
       7199.1371       3.7697044
       7200.0260       3.7517165
       7200.9149       3.5948752
       7201.8038       3.4689943
       7202.6927       3.5835521
       7203.5816       3.6718931
       7204.4705       3.4096446
       7205.3595       3.7212628
       7206.2484       3.7442774
       7207.1373       3.5338600
       7208.0262       3.5047391
       7208.9151       3.6614684
       7209.8040       3.5582564
       7210.6929       3.6087734
       7211.5819       3.5489573
       7212.4708       3.3998499
       7213.3597       3.3893287
       7214.2486       3.5117088
       7215.1375       3.4154723
       7216.0264       3.6123238
       7216.9153       3.7307250
       7217.8043       3.6676311
       7218.6932       3.4922072
       7219.5821       3.3592676
       7220.4710       3.5685942
       7221.3599       3.6324964
       7222.2488       3.4246388
       7223.1378       3.6194068
       7224.0267       3.4766772
       7224.9156       3.6791359
       7225.8045       3.6970771
       7226.6934       3.7053245
       7227.5823       3.5564370
       7228.4712       3.5824998
       7229.3602       3.5887112
       7230.2491       3.6926139
       7231.1380       3.5707135
       7232.0269       3.3151979
       7232.9158       3.0551656
       7233.8047       3.0725160
       7234.6936       2.5775661
       7235.5826       3.1462973
       7236.4715       3.2174257
       7237.3604       3.5059840
       7238.2493       2.8886117
       7239.1382       3.2362006
       7240.0271       3.9766886
       7240.9160       3.5023463
       7241.8050       3.5680231
       7242.6939       3.1168083
       7243.5828       3.5199376
       7244.4717       3.7176217
       7245.3606       3.8325824
       7246.2495       3.7417727
       7247.1384       3.6220292
       7248.0274       3.3479409
       7248.9163       3.2666806
       7249.8052       3.4761764
       7250.6941       3.5299655
       7251.5830       3.5086992
       7252.4719       3.7973884
       7253.3608       3.5434547
       7254.2498       3.5111582
       7255.1387       3.4441446
       7256.0276       3.4885606
       7256.9165       3.4732666
       7257.8054       3.4246420
       7258.6943       3.6639681
       7259.5832       3.4371585
       7260.4722       3.3867492
       7261.3611       3.0148867
       7262.2500       3.0362272
       7263.1389       3.2078105
       7264.0278       3.1550180
       7264.9167       3.2610144
       7265.8056       2.8882641
       7266.6946       2.9682687
       7267.5835       2.8612633
       7268.4724       2.9631471
       7269.3613       2.7378615
       7270.2502       2.6544442
       7271.1391       2.6574864
       7272.0280       2.5251070
       7272.9170       2.6391330
       7273.8059       2.5825099
       7274.6948       2.4624364
