# wavelength flux
       5509.0330       2.4635986
       5510.0057       2.3869993
       5510.9784       2.2809271
       5511.9510       1.9339883
       5512.9237       1.7758434
       5513.8964       1.7723135
       5514.8691       1.7408537
       5515.8417       1.8103430
       5516.8144       1.4830379
       5517.7871       1.5187014
       5518.7598       1.7797086
       5519.7324       1.7292086
       5520.7051       1.8698783
       5521.6778       1.8821377
       5522.6505       1.7845399
       5523.6232       2.0329915
       5524.5958       1.8112601
       5525.5685       1.7362833
       5526.5412       1.7590331
       5527.5139       1.6863683
       5528.4865       1.7478163
       5529.4592       1.9098243
       5530.4319       1.8402546
       5531.4046       1.6737060
       5532.3772       1.8674461
       5533.3499       1.9187308
       5534.3226       1.8889186
       5535.2953       1.8087279
       5536.2679       1.8286177
       5537.2406       1.7836580
       5538.2133       1.9594993
       5539.1860       2.0276497
       5540.1586       1.8759549
       5541.1313       1.8900296
       5542.1040       1.8081251
       5543.0767       1.7223961
       5544.0494       1.6762707
       5545.0220       1.9138134
       5545.9947       1.7675197
       5546.9674       1.9507243
       5547.9401       1.8338720
       5548.9127       1.8438448
       5549.8854       1.9431858
       5550.8581       1.8325820
       5551.8308       1.8623303
       5552.8034       1.7860585
       5553.7761       1.9094440
       5554.7488       1.8852584
       5555.7215       1.9958844
       5556.6941       2.0549214
       5557.6668       1.8769157
       5558.6395       1.7663980
       5559.6122       1.7293190
       5560.5848       1.9350941
       5561.5575       1.6457019
       5562.5302       1.7423755
       5563.5029       1.8448470
       5564.4756       1.7514381
       5565.4482       1.9337293
       5566.4209       1.8716956
       5567.3936       2.0760761
       5568.3663       1.8644277
       5569.3389       1.7357313
       5570.3116       1.7294476
       5571.2843       1.8154870
       5572.2570       1.8526991
       5573.2296       1.7200654
       5574.2023       1.8512182
       5575.1750       1.8530656
       5576.1477       1.7148290
       5577.1203       1.7593987
       5578.0930       1.7786458
       5579.0657       1.8991165
       5580.0384       1.9321692
       5581.0110       1.7435890
       5581.9837       1.7996510
       5582.9564       1.9965091
       5583.9291       2.0331475
       5584.9018       2.0620932
       5585.8744       1.9919563
       5586.8471       1.7721475
       5587.8198       1.9993236
       5588.7925       1.9520174
       5589.7651       1.8339651
       5590.7378       1.9647665
       5591.7105       1.8697660
       5592.6832       1.7507925
       5593.6558       1.8391663
       5594.6285       1.7025781
       5595.6012       1.6929184
       5596.5739       1.9657247
       5597.5465       1.6304347
       5598.5192       1.8558962
       5599.4919       1.8177776
       5600.4646       1.7052238
       5601.4372       1.8443415
       5602.4099       1.8844238
       5603.3826       1.7792571
       5604.3553       1.8225387
       5605.3280       1.9442127
       5606.3006       2.1699164
       5607.2733       2.0305165
       5608.2460       1.9848048
       5609.2187       1.8410548
       5610.1913       1.9485380
       5611.1640       2.0343703
       5612.1367       1.8131507
       5613.1094       1.5407927
       5614.0820       1.4990885
       5615.0547       1.3309057
       5616.0274       1.3531686
       5617.0001       1.5386390
       5617.9727       1.6067735
       5618.9454       1.6372826
       5619.9181       1.5674810
       5620.8908       1.6436477
       5621.8634       1.7474254
       5622.8361       1.8136787
       5623.8088       1.8593784
       5624.7815       1.6886054
       5625.7542       1.8543330
       5626.7268       1.9996688
       5627.6995       1.9172258
       5628.6722       1.9373098
       5629.6449       1.8956380
       5630.6175       1.8641237
       5631.5902       1.7047504
       5632.5629       1.7892506
       5633.5356       1.7853972
       5634.5082       1.6668679
       5635.4809       1.5586574
       5636.4536       1.8315164
       5637.4263       1.6217448
       5638.3989       1.7008814
       5639.3716       1.6941474
       5640.3443       2.0585277
       5641.3170       1.8857037
       5642.2896       1.9075887
       5643.2623       1.8327082
       5644.2350       1.7875420
       5645.2077       1.7207750
       5646.1804       1.7609843
       5647.1530       1.9405290
       5648.1257       2.0563363
       5649.0984       1.9801609
       5650.0711       2.0991143
       5651.0437       1.8980561
       5652.0164       2.0746556
       5652.9891       1.8399333
       5653.9618       2.1689971
       5654.9344       1.9983058
       5655.9071       2.0288832
       5656.8798       2.0497843
       5657.8525       2.1857877
       5658.8251       2.0345766
       5659.7978       2.0086274
       5660.7705       1.7919022
       5661.7432       2.0489476
       5662.7159       1.9447858
       5663.6885       2.0795679
       5664.6612       2.1362851
       5665.6339       1.9613738
       5666.6066       2.1033680
       5667.5792       1.9913913
       5668.5519       1.9107145
       5669.5246       1.7824289
       5670.4973       1.8908839
       5671.4699       2.0692932
       5672.4426       2.2395633
       5673.4153       1.7837093
       5674.3880       2.0049705
       5675.3606       2.0123216
       5676.3333       1.9296982
       5677.3060       1.9603901
       5678.2787       1.8791486
       5679.2513       2.1327148
       5680.2240       2.0092469
       5681.1967       1.8535833
       5682.1694       2.0829746
       5683.1421       2.1926662
       5684.1147       1.9458367
       5685.0874       1.8916874
       5686.0601       1.8128786
       5687.0328       1.9342825
       5688.0054       1.8637295
       5688.9781       1.7653364
       5689.9508       2.0284360
       5690.9235       1.9100349
       5691.8961       1.8484393
       5692.8688       2.1397781
       5693.8415       1.9747265
       5694.8142       2.0302567
       5695.7868       2.1813734
       5696.7595       2.0840532
       5697.7322       2.0877213
       5698.7049       2.2118970
       5699.6775       2.1579939
       5700.6502       2.0705638
       5701.6229       2.1842321
       5702.5956       2.2060443
       5703.5683       2.2584454
       5704.5409       2.1325250
       5705.5136       1.8876801
       5706.4863       2.1955220
       5707.4590       2.0747418
       5708.4316       2.0780919
       5709.4043       1.9595019
       5710.3770       1.8703007
       5711.3497       2.0885284
       5712.3223       2.0611094
       5713.2950       2.1672897
       5714.2677       2.2738803
       5715.2404       2.1442994
       5716.2130       2.1173222
       5717.1857       2.2296066
       5718.1584       2.0986720
       5719.1311       2.0066144
       5720.1037       2.2516420
       5721.0764       2.1743977
       5722.0491       1.9672138
       5723.0218       2.2142205
       5723.9945       2.1025780
       5724.9671       1.8848982
       5725.9398       2.0327505
       5726.9125       1.9713930
       5727.8852       2.1097201
       5728.8578       1.9626616
       5729.8305       1.9259529
       5730.8032       2.0852812
       5731.7759       2.0267807
       5732.7485       1.9124876
       5733.7212       2.1996013
       5734.6939       2.1905081
       5735.6666       2.1151728
       5736.6392       2.2253715
       5737.6119       2.0104375
       5738.5846       2.1911808
       5739.5573       2.0007214
       5740.5299       2.1201909
       5741.5026       2.1521282
       5742.4753       1.9720644
       5743.4480       2.0251672
       5744.4207       2.0929238
       5745.3933       2.0983590
       5746.3660       2.0214105
       5747.3387       2.0733751
       5748.3114       1.9820546
       5749.2840       2.1493517
       5750.2567       2.1135931
       5751.2294       2.3249167
       5752.2021       2.1111720
       5753.1747       2.1244284
       5754.1474       2.0626737
       5755.1201       2.1348631
       5756.0928       2.1518503
       5757.0654       2.1415450
       5758.0381       2.1740852
       5759.0108       2.1015669
       5759.9835       1.8890383
       5760.9561       2.3922747
       5761.9288       1.9338216
       5762.9015       2.0529469
       5763.8742       1.8752383
       5764.8469       1.7431058
       5765.8195       1.9868176
       5766.7922       1.9138157
       5767.7649       2.0276538
       5768.7376       2.0547009
       5769.7102       1.9549681
       5770.6829       2.1103255
       5771.6556       2.0456254
       5772.6283       2.0728664
       5773.6009       2.2131678
       5774.5736       2.2313841
       5775.5463       2.1435407
       5776.5190       2.0318347
       5777.4916       2.0723458
       5778.4643       2.1311641
       5779.4370       1.9833461
       5780.4097       1.9283998
       5781.3823       2.2440519
       5782.3550       2.2406953
       5783.3277       2.0263985
       5784.3004       2.3141598
       5785.2731       1.9979826
       5786.2457       1.9802109
       5787.2184       2.1474819
       5788.1911       2.1935337
       5789.1638       1.9961977
       5790.1364       2.1095572
       5791.1091       2.1805941
       5792.0818       2.1397415
       5793.0545       2.2163918
       5794.0271       2.3211651
       5794.9998       2.2051665
       5795.9725       2.1991759
       5796.9452       2.1849982
       5797.9178       2.1750399
       5798.8905       2.0825875
       5799.8632       2.1662812
       5800.8359       2.3788901
       5801.8085       2.2626400
       5802.7812       2.3709677
       5803.7539       2.2253478
       5804.7266       2.1872687
       5805.6993       2.1586301
       5806.6719       2.0991961
       5807.6446       2.4255111
       5808.6173       2.2359920
       5809.5900       2.2117553
       5810.5626       2.1865091
       5811.5353       2.2217846
       5812.5080       2.1685815
       5813.4807       2.1410292
       5814.4533       2.0877758
       5815.4260       2.3601162
       5816.3987       2.1917913
       5817.3714       2.2155387
       5818.3440       2.2369164
       5819.3167       2.1578392
       5820.2894       2.1933069
       5821.2621       2.1529646
       5822.2347       2.1517336
       5823.2074       2.1368551
       5824.1801       2.2895862
       5825.1528       2.3330399
       5826.1255       2.2565818
       5827.0981       2.0845497
       5828.0708       2.1506616
       5829.0435       2.0968505
       5830.0162       2.2830216
       5830.9888       2.1593080
       5831.9615       2.0571959
       5832.9342       2.2071997
       5833.9069       2.2167181
       5834.8795       1.9628181
       5835.8522       1.9846284
       5836.8249       2.1368640
       5837.7976       2.1614306
       5838.7702       2.1532797
       5839.7429       2.0519342
       5840.7156       1.9637626
       5841.6883       2.1107573
       5842.6609       2.0546227
       5843.6336       2.0253141
       5844.6063       2.1585272
       5845.5790       2.1662743
       5846.5517       2.2306849
       5847.5243       2.1375979
       5848.4970       2.1265306
       5849.4697       2.0790174
       5850.4424       2.0600269
       5851.4150       2.1597061
       5852.3877       2.2278072
       5853.3604       2.1810624
       5854.3331       2.0722860
       5855.3057       2.0417925
       5856.2784       2.1796579
       5857.2511       2.1259790
       5858.2238       2.1750166
       5859.1964       2.1907621
       5860.1691       2.2688068
       5861.1418       2.2062698
       5862.1145       2.2641917
       5863.0871       2.3254695
       5864.0598       2.2719752
       5865.0325       2.2066682
       5866.0052       2.0387487
       5866.9779       2.0163007
       5867.9505       2.1479828
       5868.9232       2.0603403
       5869.8959       2.1247728
       5870.8686       1.9336681
       5871.8412       1.8861404
       5872.8139       1.5504236
       5873.7866       1.4851466
       5874.7593       1.4978028
       5875.7319       1.3765783
       5876.7046       1.5005004
       5877.6773       1.5117575
       5878.6500       1.4675957
       5879.6226       1.4807984
       5880.5953       1.3960134
       5881.5680       1.4089111
       5882.5407       1.5065638
       5883.5134       1.5449715
       5884.4860       1.7049520
       5885.4587       1.7598825
       5886.4314       1.8818882
       5887.4041       1.8729726
       5888.3767       1.8586037
       5889.3494       2.1293970
       5890.3221       2.1900306
       5891.2948       2.0622898
       5892.2674       1.9157937
       5893.2401       2.0950645
       5894.2128       2.0739672
       5895.1855       2.0165064
       5896.1581       2.1218745
       5897.1308       2.0496829
       5898.1035       2.0121861
       5899.0762       1.9099429
       5900.0488       2.0655141
       5901.0215       2.0014546
       5901.9942       2.0685895
       5902.9669       2.1645355
       5903.9396       2.2817375
       5904.9122       2.1958198
       5905.8849       2.2951171
       5906.8576       2.2386888
       5907.8303       2.1565113
       5908.8029       2.2450424
       5909.7756       2.1407518
       5910.7483       2.2800342
       5911.7210       2.2030535
       5912.6936       2.1582375
       5913.6663       2.2210191
       5914.6390       2.0220604
       5915.6117       2.1284760
       5916.5843       2.2270430
       5917.5570       2.1885809
       5918.5297       2.2780286
       5919.5024       2.0868420
       5920.4750       2.1034177
       5921.4477       2.1034042
       5922.4204       2.1719100
       5923.3931       2.0507494
       5924.3658       2.2194055
       5925.3384       2.0079220
       5926.3111       2.1848110
       5927.2838       2.1759221
       5928.2565       2.0721520
       5929.2291       2.2380969
       5930.2018       2.1998573
       5931.1745       2.0940154
       5932.1472       2.2186641
       5933.1198       2.0543742
       5934.0925       2.2617007
       5935.0652       2.2483802
       5936.0379       2.0613238
       5937.0105       2.1114947
       5937.9832       2.1714407
       5938.9559       2.0504139
       5939.9286       2.1890859
       5940.9012       2.0788574
       5941.8739       2.1439623
       5942.8466       2.2255693
       5943.8193       2.2620834
       5944.7920       2.1612498
       5945.7646       2.2783800
       5946.7373       2.1903167
       5947.7100       2.2416885
       5948.6827       2.1559028
       5949.6553       2.0445719
       5950.6280       2.2329291
       5951.6007       2.2661750
       5952.5734       2.1533979
       5953.5460       2.1804111
       5954.5187       2.3188719
       5955.4914       2.2648380
       5956.4641       1.9605489
       5957.4367       2.0915016
       5958.4094       2.4550868
       5959.3821       2.0041536
       5960.3548       1.9909402
       5961.3274       2.0444251
       5962.3001       2.0103429
       5963.2728       2.1596519
       5964.2455       2.2311357
       5965.2182       2.0832300
       5966.1908       2.0300287
       5967.1635       2.1056074
       5968.1362       2.0944417
       5969.1089       2.1564836
       5970.0815       2.1501639
       5971.0542       2.1901621
       5972.0269       2.1352175
       5972.9996       2.0579116
       5973.9722       2.1757499
       5974.9449       1.9965124
       5975.9176       2.2875875
       5976.8903       1.9313405
       5977.8629       2.2473145
       5978.8356       2.2321365
       5979.8083       2.2068637
       5980.7810       2.2249957
       5981.7536       2.1898908
       5982.7263       2.2459135
       5983.6990       2.2452852
       5984.6717       2.2676766
       5985.6444       2.1277306
       5986.6170       2.2516873
       5987.5897       2.3458033
       5988.5624       2.3479797
       5989.5351       2.3323681
       5990.5077       2.2940191
       5991.4804       2.1002397
       5992.4531       2.1806173
       5993.4258       2.1674767
       5994.3984       2.4889908
       5995.3711       2.1678264
       5996.3438       2.3043324
       5997.3165       2.5234200
       5998.2891       2.4352542
       5999.2618       2.1780758
       6000.2345       2.4443551
       6001.2072       2.2271324
       6002.1798       2.1500745
       6003.1525       2.2898149
       6004.1252       2.3103631
       6005.0979       2.2917772
       6006.0706       2.2373224
       6007.0432       2.1012497
       6008.0159       2.2662737
       6008.9886       2.2262720
       6009.9613       2.1258938
       6010.9339       2.0893273
       6011.9066       2.4071708
       6012.8793       2.1108717
       6013.8520       2.3472398
       6014.8246       2.1064682
       6015.7973       2.1221003
       6016.7700       2.0445749
       6017.7427       2.2321167
       6018.7153       2.2277399
       6019.6880       2.3425981
       6020.6607       2.2664499
       6021.6334       2.3304023
       6022.6060       2.5003295
       6023.5787       2.3107496
       6024.5514       2.4549718
       6025.5241       2.5980643
       6026.4968       2.6265067
       6027.4694       2.6432392
       6028.4421       2.5915120
       6029.4148       2.3660384
       6030.3875       2.3630530
       6031.3601       2.4040319
       6032.3328       2.2368116
       6033.3055       2.3392218
       6034.2782       2.3910616
       6035.2508       2.4295930
       6036.2235       2.6191354
       6037.1962       2.5848227
       6038.1689       2.1140489
       6039.1415       2.1540262
       6040.1142       2.3298606
       6041.0869       2.3555065
       6042.0596       2.4302376
       6043.0322       2.3499469
       6044.0049       2.4306453
       6044.9776       2.5247347
       6045.9503       2.3394475
       6046.9230       2.3458171
       6047.8956       2.4408361
       6048.8683       2.2238011
       6049.8410       2.3120341
       6050.8137       2.4877218
       6051.7863       2.3647536
       6052.7590       2.2774376
       6053.7317       2.3247208
       6054.7044       2.2875686
       6055.6770       2.3878859
       6056.6497       2.3953080
       6057.6224       2.5268623
       6058.5951       2.2548222
       6059.5677       2.3843172
       6060.5404       2.2924294
       6061.5131       2.4664655
       6062.4858       2.2128738
       6063.4584       2.1906542
       6064.4311       2.4712640
       6065.4038       2.7852874
       6066.3765       2.5158597
       6067.3492       2.5027178
       6068.3218       2.2655013
       6069.2945       2.3067579
       6070.2672       2.5729103
       6071.2399       2.4011735
       6072.2125       2.3253297
       6073.1852       2.1695122
       6074.1579       2.4405931
       6075.1306       2.3523629
       6076.1032       2.3347939
       6077.0759       2.3306986
       6078.0486       2.3170982
       6079.0213       2.2647120
       6079.9939       2.3159467
       6080.9666       2.4383669
       6081.9393       2.4791455
       6082.9120       2.2990287
       6083.8847       2.3391957
       6084.8573       2.4574031
       6085.8300       2.1767866
       6086.8027       2.3782696
       6087.7754       2.5060170
       6088.7480       2.3041344
       6089.7207       2.4027758
       6090.6934       2.3682385
       6091.6661       2.3027833
       6092.6387       2.3260721
       6093.6114       2.3317238
       6094.5841       2.1867270
       6095.5568       2.3331723
       6096.5294       2.2903740
       6097.5021       2.4241824
       6098.4748       2.5757684
       6099.4475       2.4508112
       6100.4201       2.5428255
       6101.3928       2.4020462
       6102.3655       2.5356439
       6103.3382       2.4399453
       6104.3109       2.2922975
       6105.2835       2.5003411
       6106.2562       2.4478087
       6107.2289       2.4548119
       6108.2016       2.3257952
       6109.1742       2.2475980
       6110.1469       2.3563825
       6111.1196       2.2777772
       6112.0923       2.2666404
       6113.0649       2.2936434
       6114.0376       2.3970085
       6115.0103       2.6670144
       6115.9830       2.5201067
       6116.9556       2.4928155
       6117.9283       2.3176929
       6118.9010       2.4169944
       6119.8737       2.4140582
       6120.8463       2.5833489
       6121.8190       2.4115816
       6122.7917       2.4588846
       6123.7644       2.4931862
       6124.7371       2.5357848
       6125.7097       2.5164302
       6126.6824       2.2813090
       6127.6551       2.2501248
       6128.6278       2.0750867
       6129.6004       2.4112731
       6130.5731       2.6000345
       6131.5458       2.2486471
       6132.5185       2.4900814
       6133.4911       2.3865780
       6134.4638       2.4542419
       6135.4365       2.4654428
       6136.4092       2.3975710
       6137.3818       2.5471297
       6138.3545       2.6127820
       6139.3272       2.6076219
       6140.2999       2.6267765
       6141.2725       2.5129465
       6142.2452       2.4268093
       6143.2179       2.3660325
       6144.1906       2.4276191
       6145.1633       2.4236471
       6146.1359       2.3834859
       6147.1086       2.3446350
       6148.0813       2.3061662
       6149.0540       2.5132714
       6150.0266       2.3675115
       6150.9993       2.4264511
       6151.9720       2.3497089
       6152.9447       2.3223460
       6153.9173       2.2914612
       6154.8900       2.0755578
       6155.8627       2.1854612
       6156.8354       2.3100764
       6157.8080       2.3361908
       6158.7807       2.1162100
       6159.7534       2.4530631
       6160.7261       2.1553579
       6161.6987       2.3704832
       6162.6714       2.3234673
       6163.6441       2.4103431
       6164.6168       2.2316198
       6165.5895       2.4739419
       6166.5621       2.2962159
       6167.5348       2.2333302
       6168.5075       2.3043354
       6169.4802       2.5372864
       6170.4528       2.3665445
       6171.4255       2.5308759
       6172.3982       2.5575035
       6173.3709       2.4731949
       6174.3435       2.4530569
       6175.3162       2.6148677
       6176.2889       2.4909597
       6177.2616       2.5702672
       6178.2342       2.4990715
       6179.2069       2.3367682
       6180.1796       2.4613169
       6181.1523       2.3717774
       6182.1249       2.3492496
       6183.0976       2.5071366
       6184.0703       2.2078646
       6185.0430       2.2556012
       6186.0157       2.3272179
       6186.9883       2.5217979
       6187.9610       2.4173922
       6188.9337       2.4435522
       6189.9064       2.4817951
       6190.8790       2.5277698
       6191.8517       2.2616043
       6192.8244       2.4226046
       6193.7971       2.6520316
       6194.7697       2.5970528
       6195.7424       2.4885344
       6196.7151       2.3708291
       6197.6878       2.5256337
       6198.6604       2.4438551
       6199.6331       2.5146853
       6200.6058       2.5047355
       6201.5785       2.6985313
       6202.5511       2.5265036
       6203.5238       2.4817568
       6204.4965       2.3855539
       6205.4692       2.5935973
       6206.4419       2.4741939
       6207.4145       2.4983182
       6208.3872       2.4881512
       6209.3599       2.4810932
       6210.3326       2.2956779
       6211.3052       2.1748847
       6212.2779       2.3427969
       6213.2506       2.3176450
       6214.2233       2.5918121
       6215.1959       2.4240271
       6216.1686       2.4442236
       6217.1413       2.2579850
       6218.1140       2.5247000
       6219.0866       2.5212824
       6220.0593       2.3806797
       6221.0320       2.3388670
       6222.0047       2.3693363
       6222.9773       2.2679487
       6223.9500       2.0676865
       6224.9227       1.8339073
       6225.8954       1.8129258
       6226.8681       1.7517776
       6227.8407       1.5234375
       6228.8134       1.2596445
       6229.7861       1.1640299
       6230.7588       1.1148140
       6231.7314       1.0152931
       6232.7041      0.87202983
       6233.6768             NaN
       6234.6495             NaN
       6235.6221             NaN
       6236.5948             NaN
       6237.5675             NaN
       6238.5402             NaN
       6239.5128             NaN
       6240.4855             NaN
       6241.4582             NaN
       6242.4309             NaN
       6243.4035             NaN
       6244.3762             NaN
       6245.3489             NaN
       6246.3216             NaN
       6247.2943             NaN
       6248.2669             NaN
       6249.2396             NaN
       6250.2123             NaN
       6251.1850             NaN
       6252.1576             NaN
       6253.1303             NaN
       6254.1030             NaN
       6255.0757             NaN
       6256.0483             NaN
       6257.0210             NaN
       6257.9937             NaN
       6258.9664             NaN
       6259.9390             NaN
       6260.9117             NaN
       6261.8844             NaN
       6262.8571             NaN
       6263.8297             NaN
       6264.8024             NaN
       6265.7751             NaN
       6266.7478             NaN
       6267.7205             NaN
       6268.6931             NaN
       6269.6658             NaN
       6270.6385             NaN
       6271.6112             NaN
       6272.5838             NaN
       6273.5565             NaN
       6274.5292             NaN
       6275.5019             NaN
       6276.4745             NaN
       6277.4472             NaN
       6278.4199             NaN
       6279.3926             NaN
       6280.3652             NaN
       6281.3379             NaN
       6282.3106             NaN
       6283.2833             NaN
       6284.2560             NaN
       6285.2286             NaN
       6286.2013             NaN
       6287.1740             NaN
       6288.1467             NaN
       6289.1193             NaN
       6290.0920             NaN
       6291.0647             NaN
       6292.0374             NaN
       6293.0100             NaN
       6293.9827             NaN
       6294.9554             NaN
       6295.9281             NaN
       6296.9007             NaN
       6297.8734             NaN
       6298.8461             NaN
       6299.8188             NaN
       6300.7914             NaN
       6301.7641             NaN
       6302.7368             NaN
       6303.7095             NaN
       6304.6822             NaN
       6305.6548             NaN
       6306.6275             NaN
       6307.6002             NaN
       6308.5729             NaN
       6309.5455             NaN
       6310.5182             NaN
       6311.4909             NaN
       6312.4636             NaN
       6313.4362             NaN
       6314.4089             NaN
       6315.3816             NaN
       6316.3543             NaN
       6317.3269             NaN
       6318.2996             NaN
       6319.2723             NaN
       6320.2450       2.9156030
       6321.2176       3.0774605
       6322.1903       2.9341659
       6323.1630       2.5099870
       6324.1357       2.6966225
       6325.1084       2.6428938
       6326.0810       2.9300428
       6327.0537       2.7225204
       6328.0264       2.5882506
       6328.9991       2.6982625
       6329.9717       2.5290270
       6330.9444       2.6538499
       6331.9171       2.4701199
       6332.8898       2.4728951
       6333.8624       2.6438297
       6334.8351       2.4683892
       6335.8078       2.3385522
       6336.7805       2.5729877
       6337.7531       2.4891512
       6338.7258       2.6516111
       6339.6985       2.5163496
       6340.6712       2.6606518
       6341.6438       2.6684417
       6342.6165       2.7727210
       6343.5892       2.6836086
       6344.5619       2.6088131
       6345.5346       2.6231670
       6346.5072       2.5917352
       6347.4799       2.4823608
       6348.4526       2.5686482
       6349.4253       2.5394197
       6350.3979       2.4500455
       6351.3706       2.6412016
       6352.3433       2.5247498
       6353.3160       2.6537363
       6354.2886       2.3328182
       6355.2613       2.3337752
       6356.2340       2.4138335
       6357.2067       2.5048521
       6358.1793       2.6822381
       6359.1520       2.4876488
       6360.1247       2.2196676
       6361.0974       2.5870772
       6362.0700       2.4237446
       6363.0427       2.8739960
       6364.0154       2.6180083
       6364.9881       2.6911417
       6365.9608       2.7381246
       6366.9334       2.3950414
       6367.9061       2.8005625
       6368.8788       2.7136212
       6369.8515       2.8633885
       6370.8241       2.5861902
       6371.7968       2.5629289
       6372.7695       2.5291644
       6373.7422       2.5089999
       6374.7148       2.8086907
       6375.6875       2.6667433
       6376.6602       2.6035539
       6377.6329       2.2623843
       6378.6055       2.9178759
       6379.5782       2.7465024
       6380.5509       2.7082836
       6381.5236       2.4695349
       6382.4962       2.4964835
       6383.4689       2.5859003
       6384.4416       2.6770445
       6385.4143       2.6906850
       6386.3870       2.5322289
       6387.3596       2.2946599
       6388.3323       2.7072086
       6389.3050       2.5059453
       6390.2777       2.4625800
       6391.2503       2.2746394
       6392.2230       2.4264634
       6393.1957       2.6052222
       6394.1684       2.3903320
       6395.1410       2.5452327
       6396.1137       2.5924734
       6397.0864       2.6097174
       6398.0591       2.4219032
       6399.0317       2.6930238
       6400.0044       2.5085584
       6400.9771       2.7291364
       6401.9498       2.6219403
       6402.9224       2.4294763
       6403.8951       2.6384680
       6404.8678       2.7373146
       6405.8405       2.7291344
       6406.8132       2.3736253
       6407.7858       2.2931599
       6408.7585       2.3789833
       6409.7312       2.3000879
       6410.7039       2.5014994
       6411.6765       2.5115793
       6412.6492       2.5293216
       6413.6219       2.6595567
       6414.5946       3.0012038
       6415.5672       2.5183278
       6416.5399       2.5976121
       6417.5126       2.6862960
       6418.4853       2.5063815
       6419.4579       2.7161648
       6420.4306       2.6181096
       6421.4033       2.7804316
       6422.3760       2.6063580
       6423.3486       2.7798198
       6424.3213       2.5038579
       6425.2940       2.5011316
       6426.2667       2.4822150
       6427.2394       2.5632088
       6428.2120       2.5403623
       6429.1847       2.5203967
       6430.1574       2.3846019
       6431.1301       2.7341097
       6432.1027       2.5163736
       6433.0754       2.5058083
       6434.0481       2.7497647
       6435.0208       2.5128693
       6435.9934       2.4991701
       6436.9661       2.4679999
       6437.9388       2.3641045
       6438.9115       3.0622951
       6439.8841       2.4160871
       6440.8568       2.7782229
       6441.8295       2.7657648
       6442.8022       2.6509678
       6443.7748       2.8897519
       6444.7475       2.6561388
       6445.7202       2.8633351
       6446.6929       2.5507708
       6447.6656       2.3233407
       6448.6382       2.4120940
       6449.6109       2.3216567
       6450.5836       2.5788567
       6451.5563       2.6067080
       6452.5289       2.5152278
       6453.5016       2.5463383
       6454.4743       2.6042989
       6455.4470       2.8446053
       6456.4196       2.5182225
       6457.3923       2.7332652
       6458.3650       2.6000872
       6459.3377       2.6419201
       6460.3103       2.4496712
       6461.2830       2.4888914
       6462.2557       2.4878039
       6463.2284       2.7785961
       6464.2010       2.5914908
       6465.1737       2.7543029
       6466.1464       2.7142908
       6467.1191       2.5772675
       6468.0918       2.5377602
       6469.0644       2.7495810
       6470.0371       2.4342060
       6471.0098       2.7179833
       6471.9825       2.3182346
       6472.9551       2.7271593
       6473.9278       2.4606814
       6474.9005       2.5581027
       6475.8732       2.5768594
       6476.8458       2.4513157
       6477.8185       2.6183014
       6478.7912       2.5648804
       6479.7639       2.3174125
       6480.7365       2.5800162
       6481.7092       2.5218681
       6482.6819       2.4023055
       6483.6546       2.5305723
       6484.6273       2.5163647
       6485.5999       2.4715597
       6486.5726       2.4403408
       6487.5453       2.4497368
       6488.5180       2.4612156
       6489.4906       2.5557764
       6490.4633       2.8040169
       6491.4360       2.4554774
       6492.4087       2.4653937
       6493.3813       2.3120161
       6494.3540       2.0899875
       6495.3267       2.7142954
       6496.2994       2.1545418
       6497.2720       2.2339648
       6498.2447       2.5319093
       6499.2174       2.2629540
       6500.1901       2.7386212
       6501.1627       2.5035066
       6502.1354       2.6807173
       6503.1081       2.6945666
       6504.0808       2.8053827
       6505.0535       2.2729099
       6506.0261       2.4515320
       6506.9988       2.5676312
       6507.9715       2.6539064
       6508.9442       2.8111133
       6509.9168       2.5451302
       6510.8895       2.6978760
       6511.8622       2.7825376
       6512.8349       2.6372840
       6513.8075       2.7821535
       6514.7802       2.8257893
       6515.7529       2.7125052
       6516.7256       2.8799220
       6517.6982       2.7154771
       6518.6709       3.0348050
       6519.6436       2.7057713
       6520.6163       2.6134517
       6521.5889       2.4159923
       6522.5616       2.5438628
       6523.5343       2.6273512
       6524.5070       2.8300678
       6525.4797       2.6174959
       6526.4523       2.6743450
       6527.4250       2.4499781
       6528.3977       2.4799189
       6529.3704       2.2638767
       6530.3430       2.5877124
       6531.3157       2.4649802
       6532.2884       2.4519735
       6533.2611       2.3987672
       6534.2337       2.7070746
       6535.2064       2.7794354
       6536.1791       2.4420080
       6537.1518       2.3610363
       6538.1244       2.3265781
       6539.0971       2.1665580
       6540.0698       2.4463121
       6541.0425       2.8360707
       6542.0151       3.0609129
       6542.9878       3.1115820
       6543.9605       3.2170419
       6544.9332       3.4254173
       6545.9059       3.7476503
       6546.8785       3.4483572
       6547.8512       3.3818038
       6548.8239       3.3020004
       6549.7966       2.4842235
       6550.7692       2.1760591
       6551.7419       1.5592792
       6552.7146      0.78325063
       6553.6873      0.85187883
       6554.6599      0.57385667
       6555.6326       1.2499188
       6556.6053       2.4414694
       6557.5780       3.7587552
       6558.5506       5.6700999
       6559.5233       6.8112500
       6560.4960       7.2292884
       6561.4687       7.3427754
       6562.4413       6.4501558
       6563.4140       4.9015445
       6564.3867       3.8438161
       6565.3594       2.9379732
       6566.3321       2.4549099
       6567.3047       2.1993685
       6568.2774       2.2753687
       6569.2501       2.3639627
       6570.2228       2.4739085
       6571.1954       2.2348261
       6572.1681       2.3245063
       6573.1408       2.4019697
       6574.1135       2.0703882
       6575.0861       1.8718964
       6576.0588       1.9454954
       6577.0315       2.6886370
       6578.0042       3.6177102
       6578.9768       4.4111584
       6579.9495       5.1332650
       6580.9222       5.4567892
       6581.8949       5.5954783
       6582.8675       5.4102183
       6583.8402       4.9375055
       6584.8129       4.1029747
       6585.7856       3.3281432
       6586.7583       2.8655985
       6587.7309       2.5914122
       6588.7036       2.3375351
       6589.6763       2.4841440
       6590.6490       2.6826011
       6591.6216       2.5388402
       6592.5943       2.5597384
       6593.5670       2.6832719
       6594.5397       2.5950314
       6595.5123       2.7566177
       6596.4850       2.8393822
       6597.4577       2.6009600
       6598.4304       2.6186150
       6599.4030       2.7325151
       6600.3757       2.8124598
       6601.3484       2.6017584
       6602.3211       2.6253185
       6603.2937       2.8571794
       6604.2664       2.5262052
       6605.2391       2.4863086
       6606.2118       2.6564571
       6607.1845       2.6489623
       6608.1571       2.5192083
       6609.1298       2.8989742
       6610.1025       2.6947077
       6611.0752       2.7584942
       6612.0478       2.7377350
       6613.0205       2.6768107
       6613.9932       2.6922152
       6614.9659       2.6138685
       6615.9385       2.8064818
       6616.9112       2.8905190
       6617.8839       2.9758239
       6618.8566       2.8537423
       6619.8292       2.5729044
       6620.8019       2.6522734
       6621.7746       2.7422140
       6622.7473       2.6791786
       6623.7199       2.6305684
       6624.6926       2.7870109
       6625.6653       2.7757726
       6626.6380       2.6206358
       6627.6107       2.2555763
       6628.5833       2.4928961
       6629.5560       2.7053177
       6630.5287       2.8541989
       6631.5014       2.5513395
       6632.4740       2.4791156
       6633.4467       2.5244188
       6634.4194       2.7236679
       6635.3921       2.6850661
       6636.3647       2.6564980
       6637.3374       2.9619461
       6638.3101       2.7374680
       6639.2828       2.5919581
       6640.2554       2.5266455
       6641.2281       2.7197842
       6642.2008       2.6490110
       6643.1735       2.7532005
       6644.1461       2.7539239
       6645.1188       2.7937157
       6646.0915       2.6832576
       6647.0642       2.6419676
       6648.0369       2.6944622
       6649.0095       2.7627304
       6649.9822       2.5744691
       6650.9549       2.5865923
       6651.9276       2.5809805
       6652.9002       2.6159925
       6653.8729       2.6676006
       6654.8456       2.5846530
       6655.8183       2.6723686
       6656.7909       2.6834923
       6657.7636       2.4569130
       6658.7363       2.5939477
       6659.7090       2.6432384
       6660.6816       2.4741941
       6661.6543       2.5833771
       6662.6270       2.5913878
       6663.5997       2.6545676
       6664.5723       2.6855473
       6665.5450       2.7595008
       6666.5177       2.4830602
       6667.4904       2.4150667
       6668.4631       2.7611733
       6669.4357       2.5719075
       6670.4084       2.5735059
       6671.3811       2.6225253
       6672.3538       2.6551087
       6673.3264       2.7145117
       6674.2991       2.4938786
       6675.2718       2.5946413
       6676.2445       2.5524531
       6677.2171       2.8082154
       6678.1898       2.5834316
       6679.1625       2.8114424
       6680.1352       2.6295748
       6681.1078       2.4568958
       6682.0805       2.5482797
       6683.0532       2.6636919
       6684.0259       2.5054045
       6684.9986       2.5446338
       6685.9712       2.4868085
       6686.9439       2.5628664
       6687.9166       2.5045819
       6688.8893       2.6940128
       6689.8619       2.4701338
       6690.8346       2.2162349
       6691.8073       2.6111725
       6692.7800       2.5208837
       6693.7526       2.6146854
       6694.7253       2.4956775
       6695.6980       2.6542049
       6696.6707       2.3852135
       6697.6433       2.4310846
       6698.6160       2.6166768
       6699.5887       2.5586269
       6700.5614       2.3849653
       6701.5340       2.3622130
       6702.5067       2.6366977
       6703.4794       2.5519698
       6704.4521       2.5286268
       6705.4248       2.6157061
       6706.3974       2.2174423
       6707.3701       2.1194603
       6708.3428       2.0223471
       6709.3155       2.2680350
       6710.2881       2.2338737
       6711.2608       2.6144560
       6712.2335       2.7747460
       6713.2062       2.9455617
       6714.1788       3.1298412
       6715.1515       3.2979976
       6716.1242       3.2352598
       6717.0969       3.0968440
       6718.0695       2.8660633
       6719.0422       2.6424293
       6720.0149       2.5111383
       6720.9876       2.2404596
       6721.9602       2.3232185
       6722.9329       2.1467272
       6723.9056       2.2479780
       6724.8783       2.3644037
       6725.8510       2.4358844
       6726.8236       2.8268973
       6727.7963       3.1252085
       6728.7690       3.2192234
       6729.7417       3.2801321
       6730.7143       3.1394040
       6731.6870       3.0739700
       6732.6597       2.8280546
       6733.6324       2.5937478
       6734.6050       2.4825623
       6735.5777       2.6193218
       6736.5504       2.7115314
       6737.5231       2.5594755
       6738.4957       2.5983994
       6739.4684       2.3702352
       6740.4411       2.5288298
       6741.4138       2.5273829
       6742.3864       2.5569174
       6743.3591       2.7109922
       6744.3318       2.4893208
       6745.3045       2.5444514
       6746.2772       2.7181301
       6747.2498       2.7003052
       6748.2225       2.4927180
       6749.1952       2.2729697
       6750.1679       2.2267885
       6751.1405       2.2248761
       6752.1132       2.2593161
       6753.0859       2.4090900
       6754.0586       2.4573335
       6755.0312       2.6316454
       6756.0039       2.6043634
       6756.9766       2.6480789
       6757.9493       2.5413863
       6758.9219       2.5077461
       6759.8946       2.5720644
       6760.8673       2.7933432
       6761.8400       2.5632521
       6762.8126       2.4723593
       6763.7853       2.4953885
       6764.7580       2.5814867
       6765.7307       2.6124528
       6766.7034       2.4135391
       6767.6760       2.6534958
       6768.6487       2.6789495
       6769.6214       2.5703212
       6770.5941       2.5731634
       6771.5667       2.5978894
       6772.5394       2.5501749
       6773.5121       2.5784658
       6774.4848       2.5464942
       6775.4574       2.6794355
       6776.4301       2.7478280
       6777.4028       2.4655610
       6778.3755       2.5923931
       6779.3481       2.7043845
       6780.3208       2.7777627
       6781.2935       2.6218447
       6782.2662       2.6233223
       6783.2388       2.6705152
       6784.2115       2.7063464
       6785.1842       2.5026454
       6786.1569       2.7206765
       6787.1296       2.7610858
       6788.1022       2.7170725
       6789.0749       2.6054854
       6790.0476       2.4601077
       6791.0203       2.3796652
       6791.9929       2.7612275
       6792.9656       2.9073613
       6793.9383       2.5834449
       6794.9110       2.5595246
       6795.8836       2.5839790
       6796.8563       2.7361276
       6797.8290       2.5332534
       6798.8017       2.8907798
       6799.7743       2.8125731
       6800.7470       2.7595121
       6801.7197       2.7472621
       6802.6924       2.8452303
       6803.6650       3.1687590
       6804.6377       2.9183517
       6805.6104       2.9663254
       6806.5831       2.8160606
       6807.5558       2.7927910
       6808.5284       2.8144888
       6809.5011       2.8462810
       6810.4738       2.5663547
       6811.4465       2.4621970
       6812.4191       2.3851202
       6813.3918       2.6930172
       6814.3645       2.4414107
       6815.3372       2.7928823
       6816.3098       2.5818967
       6817.2825       2.6931928
       6818.2552       2.7421507
       6819.2279       2.7870496
       6820.2005       2.5931454
       6821.1732       2.7186492
       6822.1459       2.8897623
       6823.1186       2.7648692
       6824.0912       2.7817602
       6825.0639       2.6045625
       6826.0366       2.7043746
       6827.0093       2.7813101
       6827.9820       2.6880792
       6828.9546       2.7628590
       6829.9273       2.6946980
       6830.9000       2.9155967
       6831.8727       2.8483241
       6832.8453       2.7850558
       6833.8180       2.6789796
       6834.7907       2.7061728
       6835.7634       2.5180060
       6836.7360       2.6792035
       6837.7087       2.5269954
       6838.6814       2.5078239
       6839.6541       2.5226163
       6840.6267       2.6592745
       6841.5994       2.7394994
       6842.5721       3.0968747
       6843.5448       2.5014778
       6844.5174       2.3357533
       6845.4901       2.6602273
       6846.4628       2.8992866
       6847.4355       2.8554467
       6848.4082       2.5885949
       6849.3808       2.8434977
       6850.3535       2.6493906
       6851.3262       3.2035250
       6852.2989       2.6690573
       6853.2715       2.9250698
       6854.2442       2.9183754
       6855.2169       2.6221567
       6856.1896       2.4145306
       6857.1622       2.4550088
       6858.1349       2.6592334
       6859.1076       2.8506283
       6860.0803       2.6971020
       6861.0529       2.7037134
       6862.0256       2.9385235
       6862.9983       2.8090801
       6863.9710       2.7921244
       6864.9436       2.9311539
       6865.9163       2.8407792
       6866.8890       2.9015135
       6867.8617       2.6600198
       6868.8344       2.9836354
       6869.8070       2.6643428
       6870.7797       2.6990271
       6871.7524       2.7960937
       6872.7251       2.6176732
       6873.6977       2.5166497
       6874.6704       2.5551968
       6875.6431       2.4249823
       6876.6158       3.1380371
       6877.5884       2.8817732
       6878.5611       2.7247914
       6879.5338       2.6785708
       6880.5065       2.9249777
       6881.4791       3.0130061
       6882.4518       2.7420286
       6883.4245       2.8818390
       6884.3972       2.8586031
       6885.3699       2.8116670
       6886.3425       2.8810427
       6887.3152       3.0928478
       6888.2879       3.0482463
       6889.2606       2.9425100
       6890.2332       3.0794369
       6891.2059       3.0214342
       6892.1786       3.0976464
       6893.1513       2.8908880
       6894.1239       2.9887345
       6895.0966       3.2428916
       6896.0693       3.0353209
       6897.0420       2.7835493
       6898.0146       2.9037673
       6898.9873       2.7574040
       6899.9600       2.9198927
       6900.9327       2.8123043
       6901.9053       2.9287766
       6902.8780       2.6779282
       6903.8507       2.9558063
       6904.8234       2.8718905
       6905.7961       2.8563220
       6906.7687       2.9235619
       6907.7414       2.9657954
       6908.7141       2.8529092
       6909.6868       2.6541249
       6910.6594       2.6449066
       6911.6321       2.6216041
       6912.6048       2.6163108
       6913.5775       2.9282331
       6914.5501       2.8326643
       6915.5228       2.9258225
       6916.4955       2.9602502
       6917.4682       2.9130414
       6918.4408       2.6638604
       6919.4135       2.9739425
       6920.3862       2.9130050
       6921.3589       2.7557431
       6922.3315       2.6974072
       6923.3042       2.7733515
       6924.2769       2.8007629
       6925.2496       2.7225783
       6926.2223       2.8185375
       6927.1949       2.8670405
       6928.1676       2.7468144
       6929.1403       2.6495235
       6930.1130       2.8033315
       6931.0856       2.8293556
       6932.0583       2.5862079
       6933.0310       2.9850517
       6934.0037       2.7616251
       6934.9763       2.7976944
       6935.9490       2.7983611
       6936.9217       2.9675411
       6937.8944       3.0005402
       6938.8670       2.7891688
       6939.8397       2.7657702
       6940.8124       2.7824114
       6941.7851       2.8703906
       6942.7577       2.8317199
       6943.7304       3.0845869
       6944.7031       2.7559400
       6945.6758       3.0592684
       6946.6485       3.1303425
       6947.6211       2.6478216
       6948.5938       3.0666180
       6949.5665       2.7235263
       6950.5392       2.8381886
       6951.5118       2.7970448
       6952.4845       2.9606984
       6953.4572       2.9257265
       6954.4299       2.7602012
       6955.4025       2.9371412
       6956.3752       2.7552017
       6957.3479       2.8414201
       6958.3206       2.8293397
       6959.2932       2.8114728
       6960.2659       3.0326517
       6961.2386       3.0793116
       6962.2113       2.8118703
       6963.1839       2.7763545
       6964.1566       2.9466316
       6965.1293       2.7753162
       6966.1020       2.9081557
       6967.0747       3.0601263
       6968.0473       2.8703890
       6969.0200       2.9552181
       6969.9927       3.0128013
       6970.9654       2.9063351
       6971.9380       3.0194698
       6972.9107       2.8482230
       6973.8834       2.7012761
       6974.8561       2.8860356
       6975.8287       2.8337692
       6976.8014       2.7221503
       6977.7741       2.6867384
       6978.7468       2.9090242
       6979.7194       2.9042976
       6980.6921       3.0615433
       6981.6648       2.5976286
       6982.6375       2.8739638
       6983.6101       2.9146485
       6984.5828       2.9218185
       6985.5555       2.7469437
       6986.5282       2.8086223
       6987.5009       3.0056284
       6988.4735       2.9062936
       6989.4462       2.8642656
       6990.4189       2.9600527
       6991.3916       2.9124729
       6992.3642       3.0050187
       6993.3369       2.8305044
       6994.3096       2.8265009
       6995.2823       2.8269021
       6996.2549       2.9822234
       6997.2276       2.9805028
       6998.2003       2.9969910
       6999.1730       2.9210636
       7000.1456       2.8164093
       7001.1183       2.7339890
       7002.0910       2.7453402
       7003.0637       2.9163777
       7004.0363       2.8188072
       7005.0090       2.9638077
       7005.9817       2.8235293
       7006.9544       2.8409143
       7007.9271       2.9528206
       7008.8997       2.8483968
       7009.8724       2.7424928
       7010.8451       2.8717822
       7011.8178       2.9178780
       7012.7904       2.9060467
       7013.7631       2.7340725
       7014.7358       3.0144918
       7015.7085       2.7396106
       7016.6811       2.6752929
       7017.6538       2.8009144
       7018.6265       2.8519738
       7019.5992       2.9176735
       7020.5718       2.9292406
       7021.5445       2.9072926
       7022.5172       2.8515944
       7023.4899       2.8510737
       7024.4625       2.8301568
       7025.4352       2.8525593
       7026.4079       2.8444605
       7027.3806       2.8220001
       7028.3533       2.9769913
       7029.3259       2.9508044
       7030.2986       2.9433112
       7031.2713       2.9947283
       7032.2440       2.9382659
       7033.2166       2.8883905
       7034.1893       2.7995773
       7035.1620       2.9124409
       7036.1347       2.9133451
       7037.1073       2.7476288
       7038.0800       2.9161447
       7039.0527       2.9489179
       7040.0254       3.0192249
       7040.9980       3.0092605
       7041.9707       2.9983248
       7042.9434       2.9994874
       7043.9161       3.2266708
       7044.8887       3.1379817
       7045.8614       3.0846184
       7046.8341       3.1035857
       7047.8068       2.8671188
       7048.7795       3.0119193
       7049.7521       2.8669830
       7050.7248       2.9644966
       7051.6975       2.7478853
       7052.6702       3.1290275
       7053.6428       2.8719015
       7054.6155       2.9991861
       7055.5882       3.0561774
       7056.5609       2.9820723
       7057.5335       2.9081898
       7058.5062       2.7843335
       7059.4789       2.8595394
       7060.4516       2.9179015
       7061.4242       2.9627221
       7062.3969       2.7881884
       7063.3696       2.8725020
       7064.3423       2.9011680
       7065.3149       2.6256372
       7066.2876       2.6825673
       7067.2603       2.7376871
       7068.2330       2.7932631
       7069.2057       3.0127473
       7070.1783       2.9470094
       7071.1510       2.8788002
       7072.1237       2.8563140
       7073.0964       2.9702237
       7074.0690       3.0346546
       7075.0417       2.8035399
       7076.0144       3.0558043
       7076.9871       2.7242632
       7077.9597       2.8809148
       7078.9324       3.4307973
       7079.9051       2.8800111
       7080.8778       2.9498393
       7081.8504       3.2074359
       7082.8231       2.9482120
       7083.7958       2.8548777
       7084.7685       2.9758296
       7085.7412       2.6197613
       7086.7138       3.0843306
       7087.6865       2.8851219
       7088.6592       2.8715115
       7089.6319       2.8509556
       7090.6045       2.7703316
       7091.5772       2.5489391
       7092.5499       3.2969827
       7093.5226       2.7102952
       7094.4952       2.9821133
       7095.4679       2.7911978
       7096.4406       2.7400193
       7097.4133       2.7891562
       7098.3859       2.6102804
       7099.3586       2.5039456
       7100.3313       2.9334707
       7101.3040       3.1796531
       7102.2766       2.5413785
       7103.2493       2.6374619
       7104.2220       2.8877370
       7105.1947       2.6940203
       7106.1674       3.0715900
       7107.1400       2.6794779
       7108.1127       2.8332331
       7109.0854       2.4490970
       7110.0581       2.5104857
       7111.0307       2.6291900
       7112.0034       2.8552266
       7112.9761       2.8769827
       7113.9488       2.5763342
       7114.9214       2.8801439
       7115.8941       3.0876911
       7116.8668       2.8631757
       7117.8395       2.8988217
       7118.8121       2.9282582
       7119.7848       2.9186476
       7120.7575       2.9720760
       7121.7302       2.8240273
       7122.7028       2.8402749
       7123.6755       2.6702507
       7124.6482       2.7668875
       7125.6209       2.7315616
       7126.5936       2.8657981
       7127.5662       2.6125584
       7128.5389       3.0071491
       7129.5116       2.7236041
       7130.4843       2.8885556
       7131.4569       2.9890488
       7132.4296       2.7440255
       7133.4023       2.8337929
       7134.3750       3.0548812
       7135.3476       2.9225662
       7136.3203       2.8360917
       7137.2930       2.6932805
       7138.2657       2.8379334
       7139.2383       2.9020028
       7140.2110       2.8729538
       7141.1837       2.7328477
       7142.1564       2.8912757
       7143.1290       2.8602688
       7144.1017       2.7620287
       7145.0744       2.7198257
       7146.0471       2.6827559
       7147.0198       2.8733204
       7147.9924       2.8128660
       7148.9651       2.7101076
       7149.9378       2.9426749
       7150.9105       2.8227296
       7151.8831       2.8267517
       7152.8558       2.8188079
       7153.8285       2.9302106
       7154.8012       2.7475168
       7155.7738       2.9476390
       7156.7465       2.8884708
       7157.7192       2.9775464
       7158.6919       2.6875742
       7159.6645       2.7067352
       7160.6372       2.8527223
       7161.6099       2.8139147
       7162.5826       2.7863123
       7163.5552       2.9337043
       7164.5279       2.8952606
       7165.5006       2.7794409
       7166.4733       2.8826852
       7167.4460       2.9530907
       7168.4186       2.7355808
       7169.3913       3.0635652
       7170.3640       3.0218187
       7171.3367       2.8090569
       7172.3093       2.8082089
       7173.2820       2.7945814
       7174.2547       2.9043812
       7175.2274       2.7721507
       7176.2000       2.7953472
       7177.1727       2.8952545
       7178.1454       2.9932947
       7179.1181       3.0073375
       7180.0907       2.8601924
       7181.0634       2.7561927
       7182.0361       2.6682496
       7183.0088       2.7216179
       7183.9814       2.7601423
       7184.9541       3.2739356
       7185.9268       2.3873649
       7186.8995       2.7798021
       7187.8722       3.2668525
       7188.8448       2.8624574
       7189.8175       2.7374161
       7190.7902       3.0762369
       7191.7629       3.1431862
       7192.7355       3.1413155
       7193.7082       2.7038238
       7194.6809       3.1013918
       7195.6536       2.9616075
       7196.6262       2.5866731
       7197.5989       2.9457206
       7198.5716       3.5702510
       7199.5443       3.0068676
       7200.5169       3.3100129
       7201.4896       3.0606673
       7202.4623       2.8146957
       7203.4350       3.0196048
       7204.4076       3.0226419
       7205.3803       2.9532924
       7206.3530       3.0448773
       7207.3257       2.8013209
       7208.2984       3.0039050
       7209.2710       2.9212823
       7210.2437       2.9198427
       7211.2164       2.8729147
       7212.1891       3.0698388
       7213.1617       2.9422660
       7214.1344       2.7920615
       7215.1071       3.0238298
       7216.0798       3.2709992
       7217.0524       3.0442523
       7218.0251       2.9300972
       7218.9978       2.9896300
       7219.9705       2.9755438
       7220.9431       2.8960154
       7221.9158       3.0639567
       7222.8885       2.8346263
       7223.8612       2.9767672
       7224.8338       3.0627617
       7225.8065       3.0163546
       7226.7792       2.9507501
       7227.7519       3.1908303
       7228.7246       2.9230914
       7229.6972       3.0322408
       7230.6699       3.1826053
       7231.6426       2.9972265
       7232.6153       3.1108320
       7233.5879       3.0764256
       7234.5606       2.9711581
       7235.5333       2.9270193
       7236.5060       2.9224369
       7237.4786       3.4346794
       7238.4513       3.0024139
       7239.4240       3.2916943
       7240.3967       3.7448507
       7241.3693       3.3055417
       7242.3420       2.8096628
       7243.3147       2.8174227
       7244.2874       3.0324685
       7245.2600       3.0638730
       7246.2327       3.2517174
       7247.2054       3.7556316
       7248.1781       3.0407095
       7249.1508       3.4897963
       7250.1234       3.4559209
       7251.0961       3.4492074
       7252.0688       3.4075990
       7253.0415       3.0291097
       7254.0141       3.0448245
       7254.9868       2.8621107
       7255.9595       3.1712804
       7256.9322       3.1694168
       7257.9048       3.0789422
       7258.8775       2.9790883
       7259.8502       3.3079212
       7260.8229       3.3373164
       7261.7955       3.2437646
       7262.7682       3.2639749
       7263.7409       3.1954831
       7264.7136       3.2555012
       7265.6862       3.1008117
       7266.6589       3.1923123
       7267.6316       3.0043937
       7268.6043       3.2733147
       7269.5770       3.1647095
       7270.5496       3.0656122
       7271.5223       3.2153929
       7272.4950       3.3057366
       7273.4677       3.6376039
       7274.4403       2.9406682
       7275.4130       3.3055562
       7276.3857       3.3971454
       7277.3584       3.3788242
       7278.3310       3.2739738
       7279.3037       3.3019505
       7280.2764       3.2450149
       7281.2491       3.0138087
       7282.2217       3.0396561
       7283.1944       2.7471544
       7284.1671       2.7654152
       7285.1398       2.7847420
       7286.1125       2.8237838
       7287.0851       3.1289998
       7288.0578       3.4552099
       7289.0305       3.5245237
       7290.0032       3.3832349
       7290.9758       3.4588418
       7291.9485       3.8862976
       7292.9212       3.4242907
       7293.8939       3.1287619
       7294.8665       3.1154940
       7295.8392       3.2169454
       7296.8119       3.2386919
       7297.7846       3.4197619
       7298.7572       3.0689675
       7299.7299       2.9971942
       7300.7026       3.2209022
       7301.6753       3.3680089
       7302.6479       3.3707564
       7303.6206       3.4808231
       7304.5933       3.0008372
       7305.5660       3.3222551
       7306.5387       3.3451437
       7307.5113       3.3805444
       7308.4840       3.2409343
       7309.4567       3.1391091
       7310.4294       3.2708164
       7311.4020       3.6322300
       7312.3747       3.2664407
       7313.3474       3.4780979
       7314.3201       3.6070082
       7315.2927       3.1454783
       7316.2654       3.7887167
       7317.2381       3.6700606
       7318.2108       3.1285158
       7319.1834       3.6530979
       7320.1561       3.2152157
       7321.1288       3.5903152
       7322.1015       3.4072746
       7323.0741       3.2710129
       7324.0468       3.3973254
       7325.0195       3.4477404
       7325.9922       3.4311907
       7326.9649       3.4175108
       7327.9375       3.3224558
       7328.9102       3.2644820
       7329.8829       3.1990631
       7330.8556       3.3221493
       7331.8282       3.0552058
       7332.8009       3.6246327
       7333.7736       3.4231466
       7334.7463       3.3600317
       7335.7189       3.4101663
       7336.6916       3.5348315
       7337.6643       3.2448190
       7338.6370       3.3517775
       7339.6096       3.5333275
       7340.5823       3.3587157
       7341.5550       3.4382513
       7342.5277       3.2369506
       7343.5003       3.7429481
       7344.4730       3.8762370
       7345.4457       4.3493026
       7346.4184       4.5428691
       7347.3911       3.6273408
       7348.3637       3.3677154
       7349.3364       3.5644027
       7350.3091       3.1884438
       7351.2818       3.3385953
       7352.2544       3.2690639
       7353.2271       3.1385964
       7354.1998       3.1784888
       7355.1725       3.2519056
       7356.1451       3.1519972
       7357.1178       3.3063144
       7358.0905       3.3979502
       7359.0632       3.1251890
       7360.0358       3.0790068
       7361.0085       3.3025752
       7361.9812       3.2245252
       7362.9539       3.2369779
       7363.9265       3.2667770
       7364.8992       3.4128222
       7365.8719       3.3166595
       7366.8446       3.2465004
       7367.8173       3.0834378
       7368.7899       3.3991853
       7369.7626       3.0956519
       7370.7353       3.2837940
       7371.7080       3.1546563
       7372.6806       3.3697151
       7373.6533       3.4636761
       7374.6260       3.2765831
       7375.5987       3.4338793
       7376.5713       3.6570267
       7377.5440       3.4485631
       7378.5167       3.1922205
       7379.4894       3.2929520
       7380.4620       3.1205423
       7381.4347       3.2464297
       7382.4074       3.1990185
       7383.3801       3.1214465
       7384.3527       3.1509880
       7385.3254       3.3825460
       7386.2981       3.1286825
       7387.2708       3.2394559
       7388.2435       3.2836333
       7389.2161       3.2878873
       7390.1888       3.4550037
       7391.1615       3.5320686
       7392.1342       3.2973403
       7393.1068       3.2296145
       7394.0795       3.0772986
       7395.0522       3.1287093
       7396.0249       3.4366099
       7396.9975       3.5881956
       7397.9702       3.5461846
       7398.9429       3.3539453
       7399.9156       3.2725973
       7400.8882       3.1669731
       7401.8609       3.3558814
       7402.8336       3.2460548
       7403.8063       3.0823364
       7404.7789       3.2365358
       7405.7516       3.4635546
       7406.7243       3.5603522
       7407.6970       3.5912652
       7408.6697       3.6161133
       7409.6423       3.7179182
       7410.6150       3.2339684
       7411.5877       3.3492435
       7412.5604       3.3101277
       7413.5330       3.1859778
       7414.5057       3.4164257
       7415.4784       3.3117558
       7416.4511       3.5221711
       7417.4237       3.4572369
       7418.3964       3.7162354
       7419.3691       3.4795843
       7420.3418       3.3157608
       7421.3144       3.6131626
       7422.2871       3.5058956
       7423.2598       3.3969983
       7424.2325       3.4118654
       7425.2051       3.5056513
       7426.1778       3.6100758
       7427.1505       3.4947988
       7428.1232       3.7140509
       7429.0959       3.6198831
       7430.0685       3.8190954
       7431.0412       3.4893833
       7432.0139       3.5212123
       7432.9866       3.4544027
       7433.9592       3.4179809
       7434.9319       3.3295900
       7435.9046       3.3060965
       7436.8773       3.3653869
       7437.8499       3.1701692
       7438.8226       3.3486161
       7439.7953       3.4268002
       7440.7680       3.2083710
       7441.7406       3.3481852
       7442.7133       3.2251469
       7443.6860       3.4342968
       7444.6587       3.3710396
       7445.6313       3.3393792
       7446.6040       3.5277474
       7447.5767       3.4707638
       7448.5494       3.4659136
       7449.5221       3.6500427
       7450.4947       3.4446243
       7451.4674       3.5127838
       7452.4401       3.3712235
       7453.4128       3.3444629
       7454.3854       3.4501579
       7455.3581       3.6766553
       7456.3308       3.5980131
       7457.3035       3.5956141
       7458.2761       3.7024689
       7459.2488       3.7239261
       7460.2215       3.4534347
       7461.1942       3.5259739
       7462.1668       3.4222816
       7463.1395       3.6586918
       7464.1122       3.6714465
       7465.0849       3.5565535
       7466.0575       3.4177571
       7467.0302       3.4439786
       7468.0029       3.3114132
       7468.9756       3.4053684
       7469.9483       3.5240437
       7470.9209       3.7199184
       7471.8936       3.7048358
       7472.8663       3.6790071
       7473.8390       3.6625725
       7474.8116       3.5304056
       7475.7843       3.5519297
       7476.7570       3.5626557
       7477.7297       3.3173355
       7478.7023       3.3876318
       7479.6750       3.4160134
       7480.6477       3.6703131
       7481.6204       3.7653876
       7482.5930       3.5059592
       7483.5657       3.5248877
       7484.5384       3.6608271
       7485.5111       3.3088665
       7486.4838       3.2155537
       7487.4564       3.1410060
       7488.4291       3.2817321
       7489.4018       3.5162240
       7490.3745       3.4547776
       7491.3471       3.3984657
       7492.3198       3.3385911
       7493.2925       3.3040297
       7494.2652       3.5777864
       7495.2378       3.7108841
       7496.2105       3.6547797
       7497.1832       3.5139058
       7498.1559       3.5866450
       7499.1285       3.8659498
       7500.1012       3.8129241
       7501.0739       3.7253530
       7502.0466       3.7434503
       7503.0192       3.6348766
       7503.9919       3.5854389
       7504.9646       3.5855793
       7505.9373       3.4206117
       7506.9100       3.4554275
       7507.8826       3.5369299
       7508.8553       3.6156318
       7509.8280       3.5924012
       7510.8007       3.5898522
       7511.7733       3.8503926
       7512.7460       3.8562954
       7513.7187       3.8730808
       7514.6914       3.6988171
       7515.6640       3.7251916
       7516.6367       3.8331924
       7517.6094       3.9758853
       7518.5821       4.0014999
       7519.5547       3.4737005
       7520.5274       3.8267327
       7521.5001       3.5115870
       7522.4728       3.5347192
       7523.4454       3.7371442
       7524.4181       3.8604497
       7525.3908       3.4773506
       7526.3635       3.6212798
       7527.3362       3.6719884
       7528.3088       3.7405655
       7529.2815       3.6781334
       7530.2542       3.7755304
       7531.2269       3.7155521
       7532.1995       3.5429358
       7533.1722       3.7454022
       7534.1449       4.0671448
       7535.1176       4.0881077
       7536.0902       3.9078715
       7537.0629       3.6170647
       7538.0356       3.7175892
       7539.0083       3.6218182
       7539.9809       3.7694008
       7540.9536       3.7579271
       7541.9263       4.0676301
       7542.8990       4.0882324
       7543.8716       3.9155353
       7544.8443       3.7940178
       7545.8170       4.1676619
       7546.7897       4.2124055
       7547.7624       4.0930999
       7548.7350       3.9232873
       7549.7077       3.9787864
       7550.6804       3.7913999
       7551.6531       3.8087585
       7552.6257       3.7323660
       7553.5984       3.6750130
       7554.5711       3.6021810
       7555.5438       3.7724012
       7556.5164       3.5523550
       7557.4891       4.0271137
       7558.4618       3.9590239
       7559.4345       3.9989832
       7560.4071       3.9176424
       7561.3798       3.9646832
       7562.3525       4.0127389
       7563.3252       4.0054862
       7564.2978       4.0269304
       7565.2705       4.1848808
       7566.2432       4.1439096
       7567.2159       4.0232518
       7568.1886       3.9605402
       7569.1612       4.1349826
       7570.1339       3.9949892
       7571.1066       3.8122474
       7572.0793       3.9919414
       7573.0519       4.1284217
       7574.0246       3.7936828
       7574.9973       3.8512569
       7575.9700       3.8246932
       7576.9426       3.6754219
       7577.9153       3.9384894
       7578.8880       3.8563863
       7579.8607       3.6124975
       7580.8333       3.6401113
       7581.8060       3.8209681
       7582.7787       4.0089087
       7583.7514       3.7810826
       7584.7240       3.7962295
       7585.6967       3.7970701
       7586.6694       3.9518618
       7587.6421       3.7811671
       7588.6148       3.8577046
       7589.5874       3.8211289
       7590.5601       3.9115780
       7591.5328       3.7372630
       7592.5055       3.7521267
       7593.4781       3.5668150
       7594.4508       3.8231549
       7595.4235       3.8533035
       7596.3962       3.9639360
       7597.3688       3.8443562
       7598.3415       3.8808066
       7599.3142       3.9305242
       7600.2869       3.8050806
       7601.2595       3.8880272
       7602.2322       3.7001891
       7603.2049       3.5006239
       7604.1776       2.6405897
       7605.1502       2.7095603
       7606.1229       3.4310736
       7607.0956       3.6719969
       7608.0683       3.5383480
       7609.0410       3.4631329
       7610.0136       3.5294305
       7610.9863       3.5516018
       7611.9590       3.4835394
       7612.9317       3.1979548
       7613.9043       3.5417815
       7614.8770       3.6623303
       7615.8497       3.6116276
       7616.8224       3.6296394
       7617.7950       3.5451355
       7618.7677       3.5617661
       7619.7404       3.5030696
       7620.7131       3.4632497
       7621.6857       3.4463736
       7622.6584       3.5694287
       7623.6311       3.5735096
       7624.6038       3.5795884
       7625.5764       3.0799756
       7626.5491       3.0611725
       7627.5218       2.7929578
       7628.4945       2.9833672
       7629.4672       2.7529862
       7630.4398       2.8966151
       7631.4125       2.1753257
       7632.3852       2.7105840
       7633.3579       3.4548109
       7634.3305       4.0655277
       7635.3032       4.1741053
       7636.2759       3.9985870
       7637.2486       3.6698811
       7638.2212       3.0660617
       7639.1939       2.7929942
       7640.1666       3.2548547
       7641.1393       2.8831825
       7642.1119       3.3014265
       7643.0846       2.9548646
       7644.0573       3.3491708
       7645.0300       2.4309125
       7646.0026       2.7469637
       7646.9753       2.9157905
       7647.9480       3.4438398
       7648.9207       3.4086162
       7649.8934       3.1669908
       7650.8660       3.0163641
       7651.8387       2.5661025
       7652.8114       2.6441521
       7653.7841       2.4780778
       7654.7567       2.6198152
       7655.7294       2.9548674
       7656.7021       2.7226615
       7657.6748       2.2432924
       7658.6474       2.3001837
       7659.6201       2.0430550
       7660.5928       1.7322078
       7661.5655       2.1533879
       7662.5381       2.5473804
       7663.5108       3.0332616
       7664.4835       3.2851414
       7665.4562       3.6129020
       7666.4288       3.4296733
       7667.4015       2.8953256
       7668.3742       2.5409492
       7669.3469       2.4401616
       7670.3196       2.3269328
       7671.2922       2.1470237
       7672.2649       2.4293565
       7673.2376       2.6867274
       7674.2103       2.9600279
       7675.1829       2.9748598
       7676.1556       3.3180057
       7677.1283       3.1446837
       7678.1010       2.7212751
       7679.0736       2.7573897
       7680.0463       2.6926277
       7681.0190       2.3652500
       7681.9917       2.3833962
       7682.9643       2.3208118
       7683.9370       3.3444545
       7684.9097       3.4537069
       7685.8824       4.5109596
       7686.8551       4.0465821
       7687.8277       4.1232906
       7688.8004       3.7839081
       7689.7731       3.0947799
       7690.7458       2.9388943
       7691.7184       3.0779865
       7692.6911       3.1233067
       7693.6638       3.1919191
       7694.6365       2.9470222
       7695.6091       3.2084398
       7696.5818       3.1285408
       7697.5545       3.4549907
       7698.5272       3.7303612
       7699.4998       3.5161642
       7700.4725       3.6003425
       7701.4452       3.8710656
       7702.4179       3.4717608
       7703.3905       3.5228847
       7704.3632       3.1480970
       7705.3359       3.1282321
       7706.3086       3.3475593
       7707.2813       3.8791914
       7708.2539       3.1954205
       7709.2266       3.4613950
       7710.1993       3.5571146
       7711.1720       3.2498587
       7712.1446       3.3672451
       7713.1173       3.3451729
       7714.0900       3.1312045
       7715.0627       3.3558717
       7716.0353       3.4254430
       7717.0080       3.4064154
       7717.9807       3.6878880
       7718.9534       3.6914461
       7719.9260       3.3033491
       7720.8987       3.4173602
       7721.8714       3.2442892
       7722.8441       3.7222245
       7723.8167       3.6376466
       7724.7894       3.2943180
       7725.7621       3.0008441
       7726.7348       3.0918300
       7727.7075       2.7912885
       7728.6801       2.4930864
       7729.6528       2.5033830
       7730.6255       3.1939670
       7731.5982       2.9351446
       7732.5708       3.1650602
       7733.5435       3.7160415
       7734.5162       3.4294598
       7735.4889       3.9675801
       7736.4615       2.7388565
       7737.4342       3.3624527
       7738.4069       2.3402861
       7739.3796       3.3810864
       7740.3522       3.0287986
       7741.3249       2.9490918
       7742.2976       3.2442827
       7743.2703       3.0821214
       7744.2429       3.4189957
       7745.2156       3.6145899
       7746.1883       3.5873615
       7747.1610       3.3786931
       7748.1337       3.5039290
       7749.1063       3.3511589
       7750.0790       2.3416115
       7751.0517       2.6554463
       7752.0244       3.1981325
       7752.9970       3.3565895
       7753.9697       2.7947431
       7754.9424       2.8672406
       7755.9151       3.2645103
       7756.8877       3.4585099
       7757.8604       3.8254121
       7758.8331       3.6846351
       7759.8058       3.5618063
       7760.7784       3.2532801
       7761.7511       3.2713232
       7762.7238       3.1263264
       7763.6965       3.9270668
       7764.6691       4.0084114
       7765.6418       4.0842856
       7766.6145       3.8319350
       7767.5872       3.8469805
       7768.5599       3.9977077
       7769.5325       4.0284377
       7770.5052       3.5914911
       7771.4779       3.1358343
       7772.4506       2.9866761
       7773.4232       3.1309710
       7774.3959       3.3210451
       7775.3686       3.6319360
       7776.3413       3.8086101
       7777.3139       3.8237706
       7778.2866       3.5350248
       7779.2593       3.5586116
       7780.2320       3.1606443
       7781.2046       2.9526679
       7782.1773       3.0182348
       7783.1500       2.9185196
       7784.1227       3.0529965
       7785.0953       2.7280159
       7786.0680       2.4675783
       7787.0407       2.7823708
       7788.0134       2.8278111
       7788.9861       2.7466936
       7789.9587       3.4560075
       7790.9314       4.2228377
       7791.9041       3.9291976
       7792.8768       3.9326873
       7793.8494       4.0698268
       7794.8221       3.8190656
       7795.7948       4.0475079
       7796.7675       3.6806141
       7797.7401       3.6220556
       7798.7128       3.1738683
       7799.6855       3.3985955
       7800.6582       3.3388282
       7801.6308       3.0831303
       7802.6035       3.0729509
       7803.5762       3.2259176
       7804.5489       3.8172463
       7805.5215       3.3354285
       7806.4942       3.2427302
       7807.4669       3.5123123
       7808.4396       3.7641321
       7809.4123       3.6700410
       7810.3849       3.3230128
       7811.3576       3.8039939
       7812.3303       3.9316474
       7813.3030       3.7928205
       7814.2756       4.1286674
       7815.2483       3.6669423
       7816.2210       3.7544782
       7817.1937       3.7483621
       7818.1663       3.7149879
       7819.1390       3.6944157
       7820.1117       3.4296421
       7821.0844       3.4892158
       7822.0570       3.0863509
       7823.0297       3.1410160
       7824.0024       3.1034181
       7824.9751       3.5179112
       7825.9477       3.6556412
       7826.9204       3.8718882
       7827.8931       4.0989805
       7828.8658       3.9774727
       7829.8385       3.5400959
       7830.8111       3.3469330
       7831.7838       3.1775601
       7832.7565       3.3432463
       7833.7292       3.6055943
       7834.7018       3.7594160
       7835.6745       3.8782470
       7836.6472       3.3821605
       7837.6199       3.5556151
       7838.5925       3.9019019
       7839.5652       3.2884281
       7840.5379       3.4667460
       7841.5106       3.7779054
       7842.4832       3.5527702
       7843.4559       3.8788655
       7844.4286       3.9712864
       7845.4013       3.7947701
       7846.3739       3.8707122
       7847.3466       4.1029690
       7848.3193       3.9797059
       7849.2920       3.7959995
       7850.2647       3.7923372
       7851.2373       3.4898316
       7852.2100       3.4906485
       7853.1827       3.3468496
       7854.1554       3.6800464
       7855.1280       3.7615920
       7856.1007       3.9098977
       7857.0734       3.6698742
       7858.0461       3.6009610
       7859.0187       3.1866110
       7859.9914       3.0180480
       7860.9641       3.4816140
       7861.9368       3.5477034
       7862.9094       3.6154875
       7863.8821       3.7855029
       7864.8548       3.6058102
       7865.8275       3.8274660
       7866.8001       3.6170403
       7867.7728       4.0132174
       7868.7455       4.1078677
       7869.7182       4.0572924
       7870.6909       3.4297551
       7871.6635       3.5040053
       7872.6362       4.0211156
       7873.6089       3.6932976
       7874.5816       4.3633921
       7875.5542       4.3637471
       7876.5269       3.9108845
       7877.4996       4.3553978
       7878.4723       4.1229416
       7879.4449       3.9205826
       7880.4176       3.9697426
       7881.3903       3.5696911
       7882.3630       3.6480536
       7883.3356       3.6338669
       7884.3083       3.8897344
       7885.2810       3.6699415
       7886.2537       3.4750088
       7887.2263       3.6011968
       7888.1990       3.9213376
       7889.1717       3.7388805
       7890.1444       3.8005340
       7891.1171       3.7667470
       7892.0897       4.0242428
       7893.0624       4.1579671
       7894.0351       4.1036620
       7895.0078       3.9886508
       7895.9804       3.7709067
       7896.9531       3.7161831
       7897.9258       3.4573170
       7898.8985       3.8421879
       7899.8711       3.8068065
       7900.8438       4.0917448
       7901.8165       3.9869629
       7902.7892       3.9108479
       7903.7618       3.8111231
       7904.7345       3.4221259
       7905.7072       3.5186031
       7906.6799       3.6985014
       7907.6526       3.9422983
       7908.6252       4.0603309
       7909.5979       3.9174052
       7910.5706       3.7241779
       7911.5433       3.7142217
       7912.5159       4.0915139
       7913.4886       3.9549703
       7914.4613       3.9111840
       7915.4340       4.0554472
       7916.4066       3.8359330
       7917.3793       3.9234824
       7918.3520       3.7013080
       7919.3247       3.5988074
       7920.2973       3.8414498
       7921.2700       4.0272313
       7922.2427       4.5997116
       7923.2154       4.5422465
       7924.1880       4.0067296
       7925.1607       4.5110391
       7926.1334       4.2566538
       7927.1061       4.0202699
       7928.0788       3.9724965
       7929.0514       4.0243651
       7930.0241       4.3372150
       7930.9968       4.1234133
       7931.9695       4.1064689
       7932.9421       3.7367854
       7933.9148       3.8669932
       7934.8875       3.7092965
       7935.8602       4.2253512
       7936.8328       4.1694693
       7937.8055       4.1162126
       7938.7782       4.2403854
       7939.7509       3.9448374
       7940.7235       3.9717070
       7941.6962       4.1097851
       7942.6689       4.1713759
       7943.6416       3.7362918
       7944.6142       3.4542750
       7945.5869       4.2737633
       7946.5596       4.0571597
       7947.5323       3.9904868
       7948.5050       4.1426413
       7949.4776       4.1684771
       7950.4503       3.8163756
       7951.4230       4.0914512
       7952.3957       4.1416522
       7953.3683       4.1194360
       7954.3410       4.4148335
       7955.3137       4.2662491
       7956.2864       4.1434727
       7957.2590       4.4620917
       7958.2317       4.4698143
       7959.2044       4.1038904
       7960.1771       4.3001460
       7961.1497       4.2959597
       7962.1224       3.4899606
       7963.0951       4.1087084
       7964.0678       5.0640972
       7965.0404       4.4595342
       7966.0131       4.8061850
       7966.9858       4.0723119
       7967.9585       4.2079866
       7968.9312       4.0555728
       7969.9038       4.3511713
       7970.8765       4.2965442
       7971.8492       3.8106792
       7972.8219       4.0630992
       7973.7945       3.9363409
       7974.7672       4.0467815
       7975.7399       4.2344584
       7976.7126       3.9844534
       7977.6852       3.7301524
       7978.6579       3.6936641
       7979.6306       3.9512346
       7980.6033       3.5750850
       7981.5759       3.8408202
       7982.5486       4.0470517
       7983.5213       4.0757255
       7984.4940       4.0345738
       7985.4666       3.9387401
       7986.4393       3.8597434
       7987.4120       3.9917606
       7988.3847       3.9453545
       7989.3574       3.8153290
       7990.3300       4.0826273
       7991.3027       4.0539154
       7992.2754       4.3118865
       7993.2481       3.9033565
       7994.2207       4.0626521
       7995.1934       3.7523491
       7996.1661       3.9990657
       7997.1388       3.6513909
       7998.1114       3.9906419
       7999.0841       4.1875692
       8000.0568       4.3265999
       8001.0295       4.2822063
       8002.0021       4.1898672
       8002.9748       4.2122561
       8003.9475       4.1014767
       8004.9202       3.9499383
       8005.8928       4.3501117
       8006.8655       4.3197504
       8007.8382       4.0491499
       8008.8109       4.4360242
       8009.7836       4.1475027
       8010.7562       4.2856810
       8011.7289       4.0725481
       8012.7016       3.6262959
       8013.6743       3.7892164
       8014.6469       3.7726276
       8015.6196       4.0562397
       8016.5923       3.9257814
       8017.5650       4.1630091
       8018.5376       4.3061874
       8019.5103       4.8084898
       8020.4830       4.7610896
       8021.4557       4.9720339
       8022.4283       4.9834753
       8023.4010       4.8569922
       8024.3737       4.5635340
       8025.3464       4.7157410
       8026.3190       4.0371458
       8027.2917       4.4555636
       8028.2644       4.9560361
       8029.2371       4.1353458
       8030.2098       3.9571420
       8031.1824       3.8649887
       8032.1551       3.1143723
       8033.1278       3.2575307
       8034.1005       3.8345942
       8035.0731       4.0058161
       8036.0458       3.7802362
       8037.0185       3.9906485
       8037.9912       3.6513160
       8038.9638       4.0152242
       8039.9365       3.9518814
       8040.9092       4.0164542
       8041.8819       4.4549304
       8042.8545       4.2857597
       8043.8272       4.1778878
       8044.7999       4.4389645
       8045.7726       4.1837614
       8046.7452       4.4212535
       8047.7179       4.2245281
       8048.6906       3.9986350
       8049.6633       4.2336741
       8050.6360       4.4740651
       8051.6086       4.1812387
       8052.5813       4.0383161
       8053.5540       4.2443282
       8054.5267       4.2310615
       8055.4993       4.2142745
       8056.4720       4.3198107
       8057.4447       4.0470359
       8058.4174       4.1434450
       8059.3900       4.1614409
       8060.3627       4.3626258
       8061.3354       4.3077682
       8062.3081       4.2757839
       8063.2807       4.3785884
       8064.2534       4.1026297
       8065.2261       3.8632690
       8066.1988       3.9846119
       8067.1714       4.3864828
       8068.1441       4.4619245
       8069.1168       4.4681389
       8070.0895       4.1626536
       8071.0622       4.4270495
       8072.0348       4.3047955
       8073.0075       4.4245736
       8073.9802       4.2253340
       8074.9529       4.1909401
       8075.9255       4.1091445
       8076.8982       4.5982765
       8077.8709       4.1703985
       8078.8436       4.1152973
       8079.8162       3.9618738
       8080.7889       4.3780638
       8081.7616       4.2374640
       8082.7343       4.0493060
       8083.7069       3.9467066
       8084.6796       4.2218258
       8085.6523       4.6720794
       8086.6250       3.6686079
       8087.5976       3.9719844
       8088.5703       4.9023939
       8089.5430       4.6007868
       8090.5157       4.8645912
       8091.4884       4.6105581
       8092.4610       4.2782596
       8093.4337       3.9835483
       8094.4064       4.1658630
       8095.3791       4.4683879
       8096.3517       4.6664652
       8097.3244       4.1557764
       8098.2971       4.3937230
       8099.2698       4.0665405
       8100.2424       4.4591840
       8101.2151       4.1075962
       8102.1878       3.7836821
       8103.1605       4.3458415
       8104.1331       4.6921189
       8105.1058       4.3528918
       8106.0785       4.1154761
       8107.0512       4.4426721
       8108.0239       4.5011878
       8108.9965       3.9902688
       8109.9692       3.9824254
       8110.9419       4.4188518
       8111.9146       4.2827217
       8112.8872       4.4320058
       8113.8599       4.2186822
       8114.8326       3.8551579
       8115.8053       4.3212281
       8116.7779       4.0477340
       8117.7506       3.9531965
       8118.7233       3.7752278
       8119.6960       4.0141182
       8120.6686       4.2620743
       8121.6413       4.8775013
       8122.6140       4.7762975
       8123.5867       4.1266651
       8124.5593       4.5608689
       8125.5320       4.2467968
       8126.5047       4.0561518
       8127.4774       4.1438301
       8128.4501       3.8194683
       8129.4227       4.3425691
       8130.3954       4.1262309
       8131.3681       4.2284650
       8132.3408       4.3513462
       8133.3134       3.9550436
       8134.2861       4.1353397
       8135.2588       3.9710253
       8136.2315       4.2216857
       8137.2041       4.0051392
       8138.1768       4.2086497
       8139.1495       4.1906034
       8140.1222       3.7757277
       8141.0948       3.9883161
       8142.0675       4.5457562
       8143.0402       3.9368429
       8144.0129       3.8557411
       8144.9855       4.3120968
       8145.9582       5.4952881
       8146.9309       4.4899788
       8147.9036       5.1945666
       8148.8763       5.6006719
       8149.8489       5.3320508
       8150.8216       4.4936400
       8151.7943       4.0707538
       8152.7670       2.3112024
       8153.7396       4.3996653
       8154.7123       5.1834054
       8155.6850       4.5698655
       8156.6577       4.3598915
       8157.6303       5.4110996
       8158.6030       3.8600918
       8159.5757       4.3890956
       8160.5484       3.7907970
       8161.5210       4.8792951
       8162.4937       4.2659914
       8163.4664       4.2785134
       8164.4391       3.8097160
       8165.4117       4.2113158
       8166.3844       3.9942855
       8167.3571       4.0164914
       8168.3298       4.3319139
       8169.3025       3.5670622
       8170.2751       3.5563804
       8171.2478       3.5222706
       8172.2205       3.8453073
       8173.1932       3.8255945
       8174.1658       3.9462686
       8175.1385       3.7226173
       8176.1112       3.8656198
       8177.0839       3.9067287
       8178.0565       3.9889294
       8179.0292       3.8805284
       8180.0019       3.7924255
       8180.9746       3.8037979
       8181.9472       3.7091084
       8182.9199       4.0094511
       8183.8926       3.9115658
       8184.8653       3.8754236
       8185.8379       3.6666225
       8186.8106       4.0310944
       8187.7833       3.6317782
       8188.7560       3.7199228
       8189.7287       3.6905585
       8190.7013       3.7638380
       8191.6740       3.5432902
       8192.6467       4.0589944
       8193.6194       4.4053155
       8194.5920       3.8808400
       8195.5647       4.1396734
       8196.5374       3.7875966
       8197.5101       3.2215951
       8198.4827       4.1523147
       8199.4554       5.1846795
       8200.4281       4.0399595
       8201.4008       4.2693567
       8202.3734       5.0759945
       8203.3461       5.4325477
       8204.3188       4.4921393
       8205.2915       4.1483935
       8206.2641       4.0159579
       8207.2368       4.0725495
       8208.2095       3.4991600
       8209.1822       4.0618183
       8210.1549       5.0303766
       8211.1275       4.3721622
       8212.1002       4.3646514
       8213.0729       4.0632219
       8214.0456       4.1018368
       8215.0182       4.2787941
       8215.9909       4.0262097
       8216.9636       3.4702275
       8217.9363       4.0985901
       8218.9089       3.9171032
       8219.8816       3.6306379
       8220.8543       3.7021568
       8221.8270       3.6728223
       8222.7996       3.7504881
       8223.7723       3.4633682
       8224.7450       4.3530098
       8225.7177       3.9278450
       8226.6903       4.0363055
       8227.6630       3.6541690
       8228.6357       4.0496207
       8229.6084       3.7619721
       8230.5811       3.7842170
       8231.5537       4.0455607
       8232.5264       3.7922807
       8233.4991       3.7197151
       8234.4718       3.8226103
       8235.4444       3.3410001
       8236.4171       3.5506766
       8237.3898       3.8515370
       8238.3625       4.2705882
       8239.3351       4.1113949
       8240.3078       4.1758622
       8241.2805       3.7706755
       8242.2532       3.8218203
       8243.2258       3.7963453
       8244.1985       4.1146029
       8245.1712       3.3005033
       8246.1439       3.9758890
       8247.1165       3.8293951
       8248.0892       3.9917294
       8249.0619       3.8398518
       8250.0346       3.7573676
       8251.0073       3.4959310
       8251.9799       3.6997652
       8252.9526       3.2014371
       8253.9253       3.7214256
       8254.8980       3.4342502
       8255.8706       3.0966393
       8256.8433       4.5324732
       8257.8160       3.8700370
       8258.7887       3.9979434
       8259.7613       3.8140511
       8260.7340       4.3249793
       8261.7067       3.0704189
       8262.6794       3.1866019
       8263.6520       3.4058241
       8264.6247       3.5763684
       8265.5974       3.7646387
       8266.5701       3.8291349
       8267.5427       3.5933210
       8268.5154       3.1919809
       8269.4881       3.6019605
       8270.4608       3.7479776
       8271.4335       3.0922264
       8272.4061       3.4993545
       8273.3788       3.9403649
       8274.3515       3.9657234
       8275.3242       3.7136321
       8276.2968       3.8646859
       8277.2695       3.2721799
       8278.2422       3.2252518
       8279.2149       3.3281821
       8280.1875       3.8969115
       8281.1602       3.4524082
       8282.1329       3.3605714
       8283.1056       3.1959619
       8284.0782       3.4624235
       8285.0509       3.2051921
       8286.0236       3.5200437
       8286.9963       3.4606730
       8287.9689       3.4331607
       8288.9416       3.6160445
       8289.9143       3.3281663
       8290.8870       1.8466624
       8291.8597       2.7227766
       8292.8323       2.5573372
       8293.8050       2.9005949
       8294.7777       3.0868394
       8295.7504       3.5415211
       8296.7230       3.4853512
       8297.6957       3.5080333
       8298.6684       2.9220817
       8299.6411       3.5212549
       8300.6137       3.1284808
       8301.5864       3.4019862
       8302.5591       2.8050691
       8303.5318       3.0796725
       8304.5044       3.1425854
       8305.4771       3.2026914
       8306.4498       3.3826490
       8307.4225       3.1943776
       8308.3952       3.5410017
       8309.3678       3.2492371
       8310.3405       3.0900659
       8311.3132       3.0471832
       8312.2859       3.3314592
       8313.2585       3.1479677
       8314.2312       3.4793568
       8315.2039       3.2724228
       8316.1766       3.6917754
       8317.1492       3.4854500
       8318.1219       3.0377999
       8319.0946       3.3065232
       8320.0673       3.3442396
       8321.0399       3.1811766
       8322.0126       3.4252547
       8322.9853       3.6458774
       8323.9580       3.3103943
       8324.9306       3.5858049
       8325.9033       3.3731517
       8326.8760       2.3204933
       8327.8487       2.8194343
       8328.8214       4.5663319
       8329.7940       4.3654674
       8330.7667       4.0034720
       8331.7394       4.1155508
       8332.7121       4.0043739
       8333.6847       3.8308795
       8334.6574       3.3500080
       8335.6301       3.5108844
       8336.6028       2.8465553
       8337.5754       3.3713694
       8338.5481       3.7055891
       8339.5208       3.6024683
       8340.4935       3.9627687
       8341.4661       6.9118521
       8342.4388       6.8360688
       8343.4115       4.9300092
       8344.3842       2.8446109
       8345.3568       1.6800744
       8346.3295       2.0595641
       8347.3022       3.7215885
       8348.2749       3.2059696
       8349.2476       3.2019635
       8350.2202       3.7347033
       8351.1929       3.2129705
       8352.1656       2.9763601
       8353.1383       3.6110275
       8354.1109       3.4250369
       8355.0836       3.6926719
       8356.0563       3.7105454
       8357.0290       3.4936036
       8358.0016       3.4001142
       8358.9743       3.8784849
       8359.9470       3.2624997
       8360.9197       3.9224154
       8361.8923       4.8100235
       8362.8650       3.4862761
       8363.8377       3.6479984
       8364.8104       3.3920563
       8365.7830       3.3009924
       8366.7557       2.7467127
       8367.7284       2.9758674
       8368.7011       2.7109938
       8369.6738       2.9280630
       8370.6464       2.9614762
       8371.6191       3.4870590
       8372.5918       3.3924265
       8373.5645       2.9463292
       8374.5371       3.0219796
       8375.5098       3.1640378
       8376.4825       3.3971517
       8377.4552       3.1910694
       8378.4278       2.7082242
       8379.4005       2.9736917
       8380.3732       3.2359014
       8381.3459       2.9184873
       8382.3185       2.8085168
       8383.2912       3.0150957
       8384.2639       2.8687475
       8385.2366       3.1124310
       8386.2092       3.3462193
       8387.1819       3.2188891
       8388.1546       3.1072272
       8389.1273       3.3516931
       8390.1000       2.8830861
       8391.0726       3.1004423
       8392.0453       3.0495263
       8393.0180       2.9671515
       8393.9907       2.8732152
       8394.9633       2.6342767
       8395.9360       2.7776449
       8396.9087       2.3095328
       8397.8814       2.9909218
       8398.8540       3.1268543
       8399.8267       2.7964921
       8400.7994       2.9598918
       8401.7721       2.5407480
       8402.7447       2.6248597
       8403.7174       3.0192360
       8404.6901       2.9476066
       8405.6628       3.5226230
       8406.6354       3.2843445
       8407.6081       3.2502400
       8408.5808       3.0688629
       8409.5535       2.8967943
       8410.5262       3.0890576
       8411.4988       3.2915116
       8412.4715       2.6941635
       8413.4442       2.9118769
       8414.4169       2.7638125
       8415.3895       3.2586351
       8416.3622       2.9312432
       8417.3349       3.3995435
       8418.3076       2.6668380
       8419.2802       2.6003615
       8420.2529       2.7424958
       8421.2256       3.5412800
