# wavelength flux
       2790.7438     0.014906380
       2791.7064      0.11823480
       2792.6691     0.037144165
       2793.6318     0.058401557
       2794.5945   -0.0010717252
       2795.5572     0.048119149
       2796.5198     0.015433003
       2797.4825     0.044695799
       2798.4452    0.0024454295
       2799.4079    0.0058240670
       2800.3706    -0.018923749
       2801.3333     0.042296895
       2802.2959     0.053989525
       2803.2586     0.068665382
       2804.2213     0.073881986
       2805.1840      0.10698477
       2806.1467     0.095052700
       2807.1094     0.044430955
       2808.0720     0.098028086
       2809.0347     0.027135835
       2809.9974   -0.0094355956
       2810.9601     0.075272462
       2811.9228     0.095460084
       2812.8854    -0.014677181
       2813.8481     0.029423271
       2814.8108     0.039778927
       2815.7735     0.023977297
       2816.7362   0.00089930680
       2817.6989     0.037544825
       2818.6615     0.079864800
       2819.6242     0.042778705
       2820.5869     0.097036692
       2821.5496     0.048467351
       2822.5123     0.096417375
       2823.4749     0.070510552
       2824.4376     0.048439136
       2825.4003     0.022947974
       2826.3630     0.071398134
       2827.3257     0.080279140
       2828.2884     0.073844962
       2829.2510     0.051476365
       2830.2137     0.064359103
       2831.1764     0.085661590
       2832.1391     0.018741247
       2833.1018    0.0076814041
       2834.0644     0.046126426
       2835.0271      0.12712010
       2835.9898     0.028549172
       2836.9525      0.10247815
       2837.9152      0.12195838
       2838.8779     0.043466093
       2839.8405    0.0075401008
       2840.8032     0.034658702
       2841.7659     0.031154748
       2842.7286     0.065849705
       2843.6913     0.092042962
       2844.6539     0.054610293
       2845.6166     0.038859306
       2846.5793     0.012112758
       2847.5420     0.020728867
       2848.5047     0.097409646
       2849.4674      0.10066372
       2850.4300     0.044043293
       2851.3927    -0.019195964
       2852.3554     0.091828892
       2853.3181     0.070442031
       2854.2808      0.11592883
       2855.2435     0.021062213
       2856.2061     0.090051814
       2857.1688     0.042168376
       2858.1315     0.056772040
       2859.0942      0.13473049
       2860.0569     0.025569477
       2861.0195     0.094017730
       2861.9822     0.054408823
       2862.9449     0.019923181
       2863.9076     0.027490671
       2864.8703     0.031554579
       2865.8330     0.048559155
       2866.7956     0.020361162
       2867.7583     0.023770499
       2868.7210     0.039402143
       2869.6837     0.075092016
       2870.6464     0.032896921
       2871.6090    -0.015474626
       2872.5717     0.015658327
       2873.5344     0.051136992
       2874.4971      0.15361822
       2875.4598     0.065170472
       2876.4225     0.067399570
       2877.3851     0.081202428
       2878.3478     0.035317896
       2879.3105     0.044014937
       2880.2732    0.0017435429
       2881.2359     0.056745507
       2882.1985     0.058257270
       2883.1612      0.10649904
       2884.1239     0.083525618
       2885.0866     0.097357393
       2886.0493     0.066098782
       2887.0120     0.037732664
       2887.9746     0.056577117
       2888.9373     0.028180993
       2889.9000     0.055149955
       2890.8627     0.052255477
       2891.8254     0.076257061
       2892.7881     0.089898064
       2893.7507     0.048698509
       2894.7134     0.034584128
       2895.6761     0.082545390
       2896.6388     0.028809095
       2897.6015     0.024255970
       2898.5641     0.047137078
       2899.5268     0.062344072
       2900.4895     0.080149052
       2901.4522     0.070347763
       2902.4149     0.054960477
       2903.3776    0.0039593159
       2904.3402     0.080717045
       2905.3029     0.076232531
       2906.2656     0.045218501
       2907.2283     0.053161824
       2908.1910     0.082666490
       2909.1536     0.076337820
       2910.1163     0.046922108
       2911.0790     0.073552431
       2912.0417      0.10527280
       2913.0044     0.039221953
       2913.9671     0.091698113
       2914.9297      0.11285249
       2915.8924     0.054679670
       2916.8551     0.048072770
       2917.8178     0.053614978
       2918.7805     0.055541587
       2919.7431     0.086235546
       2920.7058     0.047966099
       2921.6685     0.071161025
       2922.6312     0.034377550
       2923.5939    0.0052463689
       2924.5566     0.049564061
       2925.5192     0.084099228
       2926.4819     0.053286936
       2927.4446     0.074328775
       2928.4073      0.11572831
       2929.3700      0.10588458
       2930.3326     0.070348848
       2931.2953     0.067832566
       2932.2580     0.068397989
       2933.2207      0.10606936
       2934.1834     0.068369930
       2935.1461     0.016073653
       2936.1087     0.051896912
       2937.0714    -0.032632590
       2938.0341     0.097359690
       2938.9968     0.030358694
       2939.9595     0.056198898
       2940.9222     0.079795229
       2941.8848     0.038021657
       2942.8475     0.032023485
       2943.8102     0.046043416
       2944.7729     0.054272640
       2945.7356     0.064408564
       2946.6982     0.059880694
       2947.6609     0.058908938
       2948.6236     0.038347622
       2949.5863      0.10754430
       2950.5490     0.095352175
       2951.5117     0.036480888
       2952.4743     0.067572778
       2953.4370     0.057265803
       2954.3997     0.030426688
       2955.3624     0.070972596
       2956.3251     0.077950714
       2957.2877     0.023310851
       2958.2504     0.055112160
       2959.2131     0.078013374
       2960.1758     0.064830909
       2961.1385     0.069496180
       2962.1012     0.077827926
       2963.0638     0.034097649
       2964.0265     0.047736664
       2964.9892     0.088116095
       2965.9519     0.078222328
       2966.9146     0.085437363
       2967.8772     0.070131831
       2968.8399     0.040405376
       2969.8026     0.094539220
       2970.7653     0.047018363
       2971.7280      0.11970047
       2972.6907     0.036712501
       2973.6533     0.066679995
       2974.6160     0.074417900
       2975.5787     0.067238514
       2976.5414    0.0095439955
       2977.5041     0.083118125
       2978.4668     0.069771888
       2979.4294     0.083599851
       2980.3921     0.037178560
       2981.3548     0.092167254
       2982.3175     0.057057674
       2983.2802     0.025763479
       2984.2428     0.019073670
       2985.2055     0.041175825
       2986.1682     0.094730540
       2987.1309      0.11343385
       2988.0936     0.053434933
       2989.0563     0.076896033
       2990.0189     0.056166116
       2990.9816     0.050700378
       2991.9443     0.048908153
       2992.9070     0.086413872
       2993.8697     0.058116959
       2994.8323     0.058220045
       2995.7950     0.054458531
       2996.7577     0.083557179
       2997.7204     0.061835087
       2998.6831     0.073527704
       2999.6458     0.081521860
       3000.6084     0.085197744
       3001.5711     0.083072865
       3002.5338     0.086734500
       3003.4965     0.057097429
       3004.4592     0.082908742
       3005.4218      0.11342656
       3006.3845     0.015393437
       3007.3472     0.051338587
       3008.3099     0.062131776
       3009.2726     0.067547314
       3010.2353     0.067630752
       3011.1979      0.11098279
       3012.1606     0.080479295
       3013.1233     0.092048540
       3014.0860      0.11234343
       3015.0487     0.090991276
       3016.0113     0.081529243
       3016.9740     0.071595492
       3017.9367      0.11305161
       3018.8994     0.072186290
       3019.8621     0.080201797
       3020.8248     0.054677578
       3021.7874     0.087810584
       3022.7501      0.10883741
       3023.7128     0.099242397
       3024.6755     0.074708489
       3025.6382      0.10470004
       3026.6009     0.030986035
       3027.5635     0.061472288
       3028.5262     0.076353029
       3029.4889     0.084530162
       3030.4516     0.094725701
       3031.4143     0.064273507
       3032.3769     0.055356366
       3033.3396     0.046024739
       3034.3023     0.075053840
       3035.2650     0.097396146
       3036.2277     0.054605064
       3037.1904     0.052203527
       3038.1530     0.048904796
       3039.1157     0.085106872
       3040.0784     0.085236704
       3041.0411     0.069128440
       3042.0038     0.041028741
       3042.9664     0.049926898
       3043.9291     0.082642628
       3044.8918     0.061371182
       3045.8545     0.084658843
       3046.8172     0.040829529
       3047.7799     0.082832031
       3048.7425     0.049135006
       3049.7052     0.063086099
       3050.6679     0.098412476
       3051.6306     0.048941852
       3052.5933      0.11483558
       3053.5559      0.10411105
       3054.5186     0.064272573
       3055.4813     0.050375343
       3056.4440     0.086913923
       3057.4067     0.039699249
       3058.3694     0.070154032
       3059.3320     0.080331170
       3060.2947     0.045241880
       3061.2574     0.052561500
       3062.2201     0.094708275
       3063.1828     0.029937760
       3064.1455     0.073899443
       3065.1081     0.051024136
       3066.0708     0.077182710
       3067.0335     0.094710176
       3067.9962     0.026725311
       3068.9589     0.078631555
       3069.9215     0.032120299
       3070.8842     0.060325226
       3071.8469     0.059116901
       3072.8096      0.10720493
       3073.7723     0.073028080
       3074.7350     0.047535311
       3075.6976     0.066603876
       3076.6603     0.089951955
       3077.6230     0.060852883
       3078.5857     0.069627884
       3079.5484     0.042451038
       3080.5110     0.098338321
       3081.4737      0.10003196
       3082.4364     0.072562880
       3083.3991     0.044724584
       3084.3618     0.077623297
       3085.3245     0.070102162
       3086.2871     0.076650908
       3087.2498     0.097683122
       3088.2125     0.090831213
       3089.1752     0.070238125
       3090.1379     0.082545805
       3091.1005     0.094095337
       3092.0632     0.066222469
       3093.0259     0.093856404
       3093.9886     0.053218875
       3094.9513     0.052887091
       3095.9140     0.011684761
       3096.8766     0.033077227
       3097.8393     0.060768791
       3098.8020     0.089821271
       3099.7647     0.081440374
       3100.7274      0.12684331
       3101.6900      0.11008042
       3102.6527     0.057259984
       3103.6154     0.054786740
       3104.5781     0.084480256
       3105.5408     0.037970586
       3106.5035     0.048340263
       3107.4661     0.058292053
       3108.4288     0.078726199
       3109.3915     0.091764717
       3110.3542      0.10472246
       3111.3169     0.082966825
       3112.2796     0.084848188
       3113.2422     0.076883190
       3114.2049     0.076231369
       3115.1676     0.093303978
       3116.1303     0.063926645
       3117.0930     0.058303041
       3118.0556     0.090947410
       3119.0183     0.058684405
       3119.9810     0.054620225
       3120.9437     0.071807357
       3121.9064     0.050353761
       3122.8691     0.053387118
       3123.8317     0.045644556
       3124.7944     0.049700616
       3125.7571     0.083756369
       3126.7198      0.10582250
       3127.6825     0.082435896
       3128.6451     0.057147926
       3129.6078     0.084785895
       3130.5705     0.088016253
       3131.5332     0.091622261
       3132.4959     0.085141681
       3133.4586     0.057922060
       3134.4212      0.11261518
       3135.3839      0.10257079
       3136.3466     0.081127382
       3137.3093     0.084643526
       3138.2720     0.056183620
       3139.2346     0.089430563
       3140.1973     0.088373606
       3141.1600     0.053972885
       3142.1227     0.079096004
       3143.0854     0.089469809
       3144.0481      0.10467081
       3145.0107      0.10973599
       3145.9734     0.074844642
       3146.9361     0.084633843
       3147.8988     0.083865180
       3148.8615      0.12563334
       3149.8241      0.10705068
       3150.7868      0.11246468
       3151.7495      0.10224589
       3152.7122     0.049640656
       3153.6749     0.096426299
       3154.6376     0.092061851
       3155.6002      0.10616899
       3156.5629     0.083348323
       3157.5256      0.11660683
       3158.4883     0.069520476
       3159.4510     0.081865112
       3160.4137     0.070054838
       3161.3763      0.10052971
       3162.3390     0.069671654
       3163.3017     0.086237988
       3164.2644     0.055191216
       3165.2271     0.077526422
       3166.1897     0.078055841
       3167.1524     0.093200845
       3168.1151     0.074460015
       3169.0778     0.064296110
       3170.0405     0.054619544
       3171.0032     0.084957008
       3171.9658     0.083678207
       3172.9285     0.088856411
       3173.8912     0.091091422
       3174.8539      0.11509771
       3175.8166     0.070937792
       3176.7792     0.087863837
       3177.7419     0.094843107
       3178.7046      0.11010708
       3179.6673     0.094169813
       3180.6300     0.098713790
       3181.5927     0.079269599
       3182.5553     0.083689262
       3183.5180     0.085699702
       3184.4807      0.10610197
       3185.4434     0.089506838
       3186.4061      0.10243480
       3187.3687     0.068859058
       3188.3314     0.079879006
       3189.2941     0.092451952
       3190.2568     0.089720932
       3191.2195     0.071581917
       3192.1822     0.080743522
       3193.1448     0.082557489
       3194.1075     0.075774875
       3195.0702     0.072384074
       3196.0329     0.060279113
       3196.9956     0.087808320
       3197.9583     0.066083633
       3198.9209     0.090807506
       3199.8836     0.084217847
       3200.8463     0.080965422
       3201.8090     0.098311609
       3202.7717     0.059690722
       3203.7343     0.076079583
       3204.6970      0.10837167
       3205.6597      0.11204573
       3206.6224     0.060220990
       3207.5851     0.079224403
       3208.5478     0.085569135
       3209.5104      0.11969236
       3210.4731      0.10100582
       3211.4358      0.10268813
       3212.3985     0.076220260
       3213.3612     0.094151579
       3214.3238      0.11544351
       3215.2865     0.089180863
       3216.2492     0.083968731
       3217.2119     0.078046459
       3218.1746     0.094412524
       3219.1373     0.070849032
       3220.0999     0.096488546
       3221.0626      0.11413157
       3222.0253     0.092422067
       3222.9880     0.091207930
       3223.9507     0.066207308
       3224.9133     0.075288180
       3225.8760     0.071487821
       3226.8387     0.055079661
       3227.8014     0.084344155
       3228.7641     0.093385547
       3229.7268     0.081339888
       3230.6894     0.093944464
       3231.6521     0.092077869
       3232.6148     0.096203235
       3233.5775     0.061613192
       3234.5402     0.096284207
       3235.5028     0.098064489
       3236.4655     0.074747796
       3237.4282     0.081070716
       3238.3909     0.084630208
       3239.3536     0.087632551
       3240.3163     0.071157970
       3241.2789     0.085261730
       3242.2416      0.10292546
       3243.2043      0.12384328
       3244.1670      0.10274689
       3245.1297     0.088325141
       3246.0924     0.087480531
       3247.0550     0.079253196
       3248.0177     0.079983784
       3248.9804     0.072881862
       3249.9431     0.070916233
       3250.9058     0.088518787
       3251.8684      0.10165251
       3252.8311     0.083281808
       3253.7938     0.089401722
       3254.7565     0.084610783
       3255.7192     0.077175563
       3256.6819     0.094734614
       3257.6445     0.083801003
       3258.6072      0.10408785
       3259.5699      0.11864489
       3260.5326     0.086254278
       3261.4953      0.10798543
       3262.4579     0.096442916
       3263.4206      0.10568460
       3264.3833     0.090159041
       3265.3460     0.081274062
       3266.3087     0.090616319
       3267.2714     0.086614687
       3268.2340     0.095566865
       3269.1967      0.12045686
       3270.1594      0.11345033
       3271.1221     0.098969585
       3272.0848      0.11255765
       3273.0474     0.098107575
       3274.0101     0.090183640
       3274.9728     0.085077886
       3275.9355      0.10201876
       3276.8982      0.10001185
       3277.8609     0.079558918
       3278.8235      0.12115210
       3279.7862      0.10609978
       3280.7489     0.098476703
       3281.7116     0.085370522
       3282.6743     0.084453764
       3283.6370     0.082018729
       3284.5996     0.085651929
       3285.5623     0.093712978
       3286.5250     0.080394309
       3287.4877      0.10088362
       3288.4504      0.10110688
       3289.4130     0.099237627
       3290.3757      0.12338641
       3291.3384      0.11624434
       3292.3011     0.093070550
       3293.2638     0.092986868
       3294.2265      0.10982563
       3295.1891      0.12686005
       3296.1518      0.11160369
       3297.1145      0.12729646
       3298.0772      0.11299102
       3299.0399     0.081908224
       3300.0025      0.11378539
       3300.9652      0.11327573
       3301.9279      0.10981198
       3302.8906      0.12404941
       3303.8533      0.12143905
       3304.8160      0.10241076
       3305.7786     0.089273858
       3306.7413     0.091601780
       3307.7040      0.11849017
       3308.6667      0.14558643
       3309.6294      0.12601600
       3310.5920     0.095188510
       3311.5547     0.091219131
       3312.5174     0.095853004
       3313.4801      0.10014737
       3314.4428      0.11208196
       3315.4055     0.098712846
       3316.3681      0.13459165
       3317.3308      0.13093893
       3318.2935      0.10863242
       3319.2562      0.11429680
       3320.2189      0.11908349
       3321.1815      0.11524340
       3322.1442      0.11341249
       3323.1069      0.11355567
       3324.0696      0.12067660
       3325.0323      0.11477868
       3325.9950      0.11290659
       3326.9576     0.099051606
       3327.9203      0.12361981
       3328.8830      0.13894113
       3329.8457      0.11736889
       3330.8084      0.10498950
       3331.7711      0.10896634
       3332.7337     0.099596585
       3333.6964      0.10720247
       3334.6591      0.10557182
       3335.6218      0.10938950
       3336.5845      0.10157949
       3337.5471      0.10744409
       3338.5098      0.11313058
       3339.4725      0.11410023
       3340.4352     0.095305980
       3341.3979      0.11580980
       3342.3606      0.11720596
       3343.3232     0.088126691
       3344.2859      0.12586134
       3345.2486      0.13315433
       3346.2113     0.095103667
       3347.1740     0.096626935
       3348.1366      0.10317709
       3349.0993     0.092594853
       3350.0620      0.10168066
       3351.0247      0.10614381
       3351.9874      0.13732442
       3352.9501      0.14500009
       3353.9127      0.13883223
       3354.8754      0.11266741
       3355.8381      0.11726053
       3356.8008      0.11701000
       3357.7635      0.11003071
       3358.7261      0.12439865
       3359.6888      0.11028110
       3360.6515      0.10258388
       3361.6142      0.10428355
       3362.5769      0.10881339
       3363.5396      0.11001452
       3364.5022      0.11547803
       3365.4649      0.10532970
       3366.4276      0.11922766
       3367.3903      0.10321805
       3368.3530      0.11705947
       3369.3157      0.12357033
       3370.2783      0.11203460
       3371.2410      0.11296415
       3372.2037      0.11669216
       3373.1664      0.12184918
       3374.1291      0.10742131
       3375.0917      0.13744618
       3376.0544      0.13695894
       3377.0171      0.12309336
       3377.9798      0.10515535
       3378.9425      0.11414965
       3379.9052     0.096281585
       3380.8678      0.10992620
       3381.8305      0.13616780
       3382.7932      0.10823140
       3383.7559      0.11482891
       3384.7186      0.10981333
       3385.6812      0.10161717
       3386.6439      0.13254052
       3387.6066      0.12787729
       3388.5693      0.12535646
       3389.5320      0.11762139
       3390.4947      0.10836828
       3391.4573      0.10298428
       3392.4200      0.10205779
       3393.3827     0.087781450
       3394.3454      0.10925969
       3395.3081      0.11268038
       3396.2707      0.11019322
       3397.2334      0.12552455
       3398.1961      0.13336783
       3399.1588      0.14222391
       3400.1215      0.13181149
       3401.0842      0.15348908
       3402.0468      0.12417710
       3403.0095      0.11530753
       3403.9722      0.10957581
       3404.9349      0.10954575
       3405.8976      0.11492663
       3406.8602      0.12680724
       3407.8229      0.14093039
       3408.7856      0.14164721
       3409.7483      0.13451592
       3410.7110      0.13455914
       3411.6737      0.12383502
       3412.6363      0.12868103
       3413.5990      0.11390858
       3414.5617     0.084635188
       3415.5244      0.12134894
       3416.4871      0.11004480
       3417.4498      0.10948709
       3418.4124      0.12366174
       3419.3751      0.11631594
       3420.3378      0.12179920
       3421.3005      0.13988019
       3422.2632      0.13100520
       3423.2258      0.13445985
       3424.1885      0.15842574
       3425.1512      0.12286998
       3426.1139      0.12792308
       3427.0766      0.13997523
       3428.0393      0.15467267
       3429.0019      0.13615385
       3429.9646      0.13682892
       3430.9273      0.13858040
       3431.8900      0.12770289
       3432.8527      0.13000590
       3433.8153      0.10072262
       3434.7780      0.12224727
       3435.7407      0.13191948
       3436.7034      0.13368698
       3437.6661      0.14684455
       3438.6288      0.13321207
       3439.5914      0.12262573
       3440.5541      0.11739267
       3441.5168      0.10573380
       3442.4795      0.10616838
       3443.4422      0.11202993
       3444.4048      0.10309890
       3445.3675      0.11743652
       3446.3302      0.13822209
       3447.2929      0.11793624
       3448.2556      0.13430690
       3449.2183      0.13964333
       3450.1809      0.13049166
       3451.1436      0.11819398
       3452.1063      0.13565151
       3453.0690      0.10623142
       3454.0317      0.14512889
       3454.9944      0.14786553
       3455.9570      0.14817473
       3456.9197      0.16524316
       3457.8824      0.14411946
       3458.8451      0.11714654
       3459.8078      0.11800866
       3460.7704      0.11171153
       3461.7331      0.13618372
       3462.6958      0.14363410
       3463.6585      0.16516957
       3464.6212      0.17442627
       3465.5839      0.11432232
       3466.5465      0.13468989
       3467.5092      0.15271351
       3468.4719      0.14157918
       3469.4346      0.15370394
       3470.3973      0.15995025
       3471.3599      0.10604476
       3472.3226      0.12256644
       3473.2853      0.15806503
       3474.2480      0.15113476
       3475.2107      0.13760807
       3476.1734      0.15322607
       3477.1360      0.15981988
       3478.0987      0.15025226
       3479.0614      0.12663972
       3480.0241      0.12297576
       3480.9868      0.12672299
       3481.9494      0.15846680
       3482.9121      0.15060967
       3483.8748      0.13074066
       3484.8375      0.13575209
       3485.8002      0.12013003
       3486.7629      0.11617132
       3487.7255      0.10723874
       3488.6882      0.10735516
       3489.6509      0.12758619
       3490.6136      0.14073596
       3491.5763      0.14169379
       3492.5389      0.13583064
       3493.5016      0.12329604
       3494.4643      0.11462745
       3495.4270      0.12299779
       3496.3897      0.12044003
       3497.3524      0.11967326
       3498.3150      0.11872276
       3499.2777      0.11260271
       3500.2404      0.12731063
       3501.2031      0.13078867
       3502.1658      0.12545873
       3503.1285      0.12309769
       3504.0911      0.12497905
       3505.0538      0.11605250
       3506.0165      0.11351723
       3506.9792      0.11294235
       3507.9419      0.12677040
       3508.9045      0.13532190
       3509.8672      0.13462954
       3510.8299      0.13742756
       3511.7926      0.13814810
       3512.7553      0.14599659
       3513.7180      0.14304603
       3514.6806      0.13232717
       3515.6433      0.11786538
       3516.6060      0.13915630
       3517.5687      0.14824561
       3518.5314      0.13425837
       3519.4940      0.13549104
       3520.4567      0.11602913
       3521.4194      0.13318739
       3522.3821      0.13087620
       3523.3448      0.12830620
       3524.3075      0.11774886
       3525.2701      0.13064023
       3526.2328      0.13521420
       3527.1955      0.13415996
       3528.1582      0.13113965
       3529.1209      0.11985576
       3530.0835      0.12485685
       3531.0462      0.13413843
       3532.0089      0.13528551
       3532.9716      0.14128319
       3533.9343      0.13339903
       3534.8970      0.14277313
       3535.8596      0.14366749
       3536.8223      0.12316126
       3537.7850      0.12549999
       3538.7477      0.12612142
       3539.7104      0.14148403
       3540.6731      0.14917070
       3541.6357      0.12472267
       3542.5984      0.12141936
       3543.5611      0.14075584
       3544.5238      0.13972597
       3545.4865      0.13530835
       3546.4491      0.12731521
       3547.4118      0.11632132
       3548.3745      0.13097584
       3549.3372      0.12834640
       3550.2999      0.12922215
       3551.2626      0.13136656
       3552.2252      0.15393657
       3553.1879      0.15126025
       3554.1506      0.15549935
       3555.1133      0.14086450
       3556.0760      0.14200055
       3557.0386      0.14614289
       3558.0013      0.15858571
       3558.9640      0.14155295
       3559.9267      0.15066464
       3560.8894      0.14879416
       3561.8521      0.15527977
       3562.8147      0.15681922
       3563.7774      0.15195118
       3564.7401      0.13535121
       3565.7028      0.12635755
       3566.6655      0.13660638
       3567.6281      0.14422747
       3568.5908      0.14916157
       3569.5535      0.13530788
       3570.5162      0.14026611
       3571.4789      0.14948893
       3572.4416      0.13650299
       3573.4042      0.13690597
       3574.3669      0.14491843
       3575.3296      0.13231882
       3576.2923      0.13451770
       3577.2550      0.12766005
       3578.2176      0.10678927
       3579.1803      0.12445126
       3580.1430      0.12515726
       3581.1057      0.11584719
       3582.0684      0.12840158
       3583.0311      0.12659960
       3583.9937      0.12875456
       3584.9564      0.14468817
       3585.9191      0.15133874
       3586.8818      0.14021966
       3587.8445      0.13090683
       3588.8072      0.12668723
       3589.7698      0.15202703
       3590.7325      0.16340685
       3591.6952      0.15899367
       3592.6579      0.13057310
       3593.6206      0.14355093
       3594.5832      0.16654327
       3595.5459      0.16672284
       3596.5086      0.13274976
       3597.4713      0.12040457
       3598.4340      0.13879682
       3599.3967      0.11065660
       3600.3593      0.12068776
       3601.3220      0.14768621
       3602.2847      0.14024185
       3603.2474      0.14152858
       3604.2101      0.17122541
       3605.1727      0.17120758
       3606.1354      0.16136361
       3607.0981      0.14404823
       3608.0608      0.13985412
       3609.0235      0.13784004
       3609.9862      0.14802223
       3610.9488      0.15034900
       3611.9115      0.13337345
       3612.8742      0.14077199
       3613.8369      0.13231244
       3614.7996      0.16022398
       3615.7622      0.16542059
       3616.7249      0.13638523
       3617.6876      0.12813066
       3618.6503      0.14663266
       3619.6130      0.13749409
       3620.5757      0.13990045
       3621.5383      0.14551919
       3622.5010      0.13735114
       3623.4637      0.13120651
       3624.4264      0.13393612
       3625.3891      0.13071494
       3626.3518      0.14404532
       3627.3144      0.16579839
       3628.2771      0.17888143
       3629.2398      0.14489709
       3630.2025      0.14504835
       3631.1652      0.16842720
       3632.1278      0.16129735
       3633.0905      0.15057096
       3634.0532      0.14887653
       3635.0159      0.14635599
       3635.9786      0.17429966
       3636.9413      0.18609112
       3637.9039      0.18616503
       3638.8666      0.18452825
       3639.8293      0.17466555
       3640.7920      0.14805634
       3641.7547      0.14194952
       3642.7173      0.13332840
       3643.6800      0.12587002
       3644.6427      0.15089883
       3645.6054      0.15818559
       3646.5681      0.17062837
       3647.5308      0.15855389
       3648.4934      0.13493099
       3649.4561      0.14463376
       3650.4188      0.14426544
       3651.3815      0.15932198
       3652.3442      0.18640472
       3653.3068      0.17416192
       3654.2695      0.18050298
       3655.2322      0.15307395
       3656.1949      0.14917183
       3657.1576      0.14137177
       3658.1203      0.15264518
       3659.0829      0.14192602
       3660.0456      0.13256772
       3661.0083      0.16013377
       3661.9710      0.15039228
       3662.9337      0.15437100
       3663.8963      0.15749454
       3664.8590      0.16951979
       3665.8217      0.18155786
       3666.7844      0.18027531
       3667.7471      0.17889412
       3668.7098      0.15967791
       3669.6724      0.17574021
       3670.6351      0.17645356
       3671.5978      0.16443849
       3672.5605      0.18546560
       3673.5232      0.18104235
       3674.4859      0.16530731
       3675.4485      0.16179095
       3676.4112      0.19070814
       3677.3739      0.20162454
       3678.3366      0.19636401
       3679.2993      0.15289167
       3680.2619      0.15896139
       3681.2246      0.18507204
       3682.1873      0.17841161
       3683.1500      0.18688881
       3684.1127      0.19318214
       3685.0754      0.17035629
       3686.0380      0.18734838
       3687.0007      0.17253724
       3687.9634      0.15190279
       3688.9261      0.17680076
       3689.8888      0.19068884
       3690.8514      0.17018669
       3691.8141      0.16016250
       3692.7768      0.16534589
       3693.7395      0.15075224
       3694.7022      0.17542129
       3695.6649      0.20027308
       3696.6275      0.18458969
       3697.5902      0.17706913
       3698.5529      0.15814671
       3699.5156      0.15408139
       3700.4783      0.16031264
       3701.4409      0.16547221
       3702.4036      0.15503925
       3703.3663      0.15450368
       3704.3290      0.18084335
       3705.2917      0.20959019
       3706.2544      0.18876325
       3707.2170      0.15775296
       3708.1797      0.17926515
       3709.1424      0.19502475
       3710.1051      0.19227701
       3711.0678      0.20603251
       3712.0304      0.20659078
       3712.9931      0.20753846
       3713.9558      0.19034286
       3714.9185      0.17672184
       3715.8812      0.15418709
       3716.8439      0.15097316
       3717.8065      0.17449022
       3718.7692      0.16212171
       3719.7319      0.15047422
       3720.6946      0.15513361
       3721.6573      0.16678101
       3722.6200      0.16200074
       3723.5826      0.18173941
       3724.5453      0.16576890
       3725.5080      0.16982986
       3726.4707      0.19916758
       3727.4334      0.19277295
       3728.3960      0.20121759
       3729.3587      0.22718465
       3730.3214      0.19823830
       3731.2841      0.20130239
       3732.2468      0.22731833
       3733.2095      0.26561911
       3734.1721      0.33599655
       3735.1348      0.46283096
       3736.0975      0.56392845
       3737.0602      0.66823251
       3738.0229      0.70868006
       3738.9855      0.73344507
       3739.9482      0.71735845
       3740.9109      0.64965660
       3741.8736      0.58083142
       3742.8363      0.45684730
       3743.7990      0.35110708
       3744.7616      0.29800386
       3745.7243      0.23457808
       3746.6870      0.19396559
       3747.6497      0.19405753
       3748.6124      0.20763871
       3749.5750      0.19947364
       3750.5377      0.22235026
       3751.5004      0.22275109
       3752.4631      0.21855388
       3753.4258      0.18045743
       3754.3885      0.18632858
       3755.3511      0.18287370
       3756.3138      0.16519552
       3757.2765      0.16939675
       3758.2392      0.18101159
       3759.2019      0.17800347
       3760.1646      0.20511939
       3761.1272      0.20277067
       3762.0899      0.19985575
       3763.0526      0.19900067
       3764.0153      0.19417210
       3764.9780      0.20900517
       3765.9406      0.23444278
       3766.9033      0.23972551
       3767.8660      0.24413618
       3768.8287      0.20799469
       3769.7914      0.20937017
       3770.7541      0.22161406
       3771.7167      0.21933497
       3772.6794      0.21544238
       3773.6421      0.21503116
       3774.6048      0.21190817
       3775.5675      0.21141497
       3776.5301      0.18727401
       3777.4928      0.18790367
       3778.4555      0.19741714
       3779.4182      0.20652929
       3780.3809      0.19779253
       3781.3436      0.17868001
       3782.3062      0.19295841
       3783.2689      0.20732519
       3784.2316      0.19907542
       3785.1943      0.20558379
       3786.1570      0.21264581
       3787.1196      0.20839451
       3788.0823      0.23511537
       3789.0450      0.23888457
       3790.0077      0.27288651
       3790.9704      0.30172434
       3791.9331      0.30955606
       3792.8957      0.29089512
       3793.8584      0.27458476
       3794.8211      0.28574494
       3795.7838      0.28172765
       3796.7465      0.28697053
       3797.7091      0.28348852
       3798.6718      0.28162323
       3799.6345      0.29503691
       3800.5972      0.29918992
       3801.5599      0.27261241
       3802.5226      0.26837432
       3803.4852      0.24962692
       3804.4479      0.24889985
       3805.4106      0.21228398
       3806.3733      0.19761109
       3807.3360      0.21207624
       3808.2987      0.19214015
       3809.2613      0.19400992
       3810.2240      0.19919952
       3811.1867      0.16173353
       3812.1494      0.21424304
       3813.1121      0.22950211
       3814.0747      0.21868319
       3815.0374      0.21943140
       3816.0001      0.25395027
       3816.9628      0.27339010
       3817.9255      0.25150373
       3818.8882      0.25258560
       3819.8508      0.25258318
       3820.8135      0.26216922
       3821.7762      0.25241256
       3822.7389      0.24280815
       3823.7016      0.25752872
       3824.6642      0.25829822
       3825.6269      0.25491459
       3826.5896      0.26557466
       3827.5523      0.25503997
       3828.5150      0.24992659
       3829.4777      0.22872444
       3830.4403      0.25354475
       3831.4030      0.24279989
       3832.3657      0.23529610
       3833.3284      0.24878604
       3834.2911      0.23100940
       3835.2537      0.20145461
       3836.2164      0.24160417
       3837.1791      0.24721772
       3838.1418      0.22882131
       3839.1045      0.22274288
       3840.0672      0.21850361
       3841.0298      0.21375692
       3841.9925      0.21457023
       3842.9552      0.20917952
       3843.9179      0.19611504
       3844.8806      0.19170002
       3845.8433      0.21259552
       3846.8059      0.22024863
       3847.7686      0.19121315
       3848.7313      0.19912100
       3849.6940      0.18531548
       3850.6567      0.20699039
       3851.6193      0.21603770
       3852.5820      0.22131422
       3853.5447      0.24948763
       3854.5074      0.24751557
       3855.4701      0.26199162
       3856.4328      0.23871480
       3857.3954      0.23916238
       3858.3581      0.25748940
       3859.3208      0.29396630
       3860.2835      0.28055997
       3861.2462      0.24971858
       3862.2088      0.26091422
       3863.1715      0.28219899
       3864.1342      0.27918787
       3865.0969      0.26976339
       3866.0596      0.30568439
       3867.0223      0.30560339
       3867.9849      0.30194770
       3868.9476      0.28394481
       3869.9103      0.26801440
       3870.8730      0.27798327
       3871.8357      0.27788033
       3872.7983      0.30368799
       3873.7610      0.30279407
       3874.7237      0.30928878
       3875.6864      0.29954418
       3876.6491      0.30028573
       3877.6118      0.30706974
       3878.5744      0.27221309
       3879.5371      0.29658499
       3880.4998      0.31214276
       3881.4625      0.30140264
       3882.4252      0.30408510
       3883.3878      0.34669987
       3884.3505      0.29812401
       3885.3132      0.26271219
       3886.2759      0.31593271
       3887.2386      0.29122957
       3888.2013      0.30922259
       3889.1639      0.27470144
       3890.1266      0.24610293
       3891.0893      0.25164231
       3892.0520      0.23235764
       3893.0147      0.21807116
       3893.9774      0.22866948
       3894.9400      0.20059026
       3895.9027      0.20642630
       3896.8654      0.23177893
       3897.8281      0.24016287
       3898.7908      0.25478789
       3899.7534      0.25996898
       3900.7161      0.22974288
       3901.6788      0.21570276
       3902.6415      0.22440593
       3903.6042      0.22890873
       3904.5669      0.24563659
       3905.5295      0.26684543
       3906.4922      0.23494989
       3907.4549      0.25368382
       3908.4176      0.28955963
       3909.3803      0.26540177
       3910.3429      0.28458938
       3911.3056      0.27862409
       3912.2683      0.28818095
       3913.2310      0.29163694
       3914.1937      0.26433611
       3915.1564      0.28458609
       3916.1190      0.29003958
       3917.0817      0.29551212
       3918.0444      0.30547681
       3919.0071      0.32700665
       3919.9698      0.31390411
       3920.9324      0.29471280
       3921.8951      0.28620746
       3922.8578      0.28275304
       3923.8205      0.28031138
       3924.7832      0.29802607
       3925.7459      0.30058436
       3926.7085      0.29957481
       3927.6712      0.29593554
       3928.6339      0.28105431
       3929.5966      0.28892220
       3930.5593      0.28572621
       3931.5220      0.27716655
       3932.4846      0.28145502
       3933.4473      0.31092471
       3934.4100      0.29840845
       3935.3727      0.27708714
       3936.3354      0.28998548
       3937.2980      0.26540748
       3938.2607      0.23058829
       3939.2234      0.24699409
       3940.1861      0.22810556
       3941.1488      0.20588897
       3942.1115      0.19853281
       3943.0741      0.20041198
       3944.0368      0.20368229
       3944.9995      0.23620350
       3945.9622      0.23229085
       3946.9249      0.27162984
       3947.8875      0.28209154
       3948.8502      0.25983764
       3949.8129      0.29867698
       3950.7756      0.32620131
       3951.7383      0.28159817
       3952.7010      0.29237910
       3953.6636      0.30325633
       3954.6263      0.31097487
       3955.5890      0.30221297
       3956.5517      0.33911689
       3957.5144      0.33117554
       3958.4770      0.30865298
       3959.4397      0.32552848
       3960.4024      0.30287928
       3961.3651      0.29538327
       3962.3278      0.31623591
       3963.2905      0.28749992
       3964.2531      0.29636231
       3965.2158      0.33217859
       3966.1785      0.32045618
       3967.1412      0.27275464
       3968.1039      0.29402014
       3969.0665      0.28299775
       3970.0292      0.25399111
       3970.9919      0.24536082
       3971.9546      0.24425845
       3972.9173      0.22653664
       3973.8800      0.19757911
       3974.8426      0.22180667
       3975.8053      0.23713741
       3976.7680      0.19581466
       3977.7307      0.21981989
       3978.6934      0.20671311
       3979.6561      0.23073457
       3980.6187      0.21094246
       3981.5814      0.21397731
       3982.5441      0.20125018
       3983.5068      0.22925676
       3984.4695      0.25142947
       3985.4321      0.25578918
       3986.3948      0.27251647
       3987.3575      0.28527673
       3988.3202      0.28405887
       3989.2829      0.30082006
       3990.2456      0.27149011
       3991.2082      0.28311807
       3992.1709      0.34206359
       3993.1336      0.35082799
       3994.0963      0.33005205
       3995.0590      0.32946714
       3996.0216      0.33393525
       3996.9843      0.32572017
       3997.9470      0.35077045
       3998.9097      0.30889466
       3999.8724      0.33789560
       4000.8351      0.31104947
       4001.7977      0.29566346
       4002.7604      0.36701868
       4003.7231      0.32888944
       4004.6858      0.35753323
       4005.6485      0.36092340
       4006.6111      0.36435363
       4007.5738      0.36528828
       4008.5365      0.37481582
       4009.4992      0.35010942
       4010.4619      0.36532576
       4011.4246      0.36195792
       4012.3872      0.35993053
       4013.3499      0.34037687
       4014.3126      0.35384033
       4015.2753      0.40125970
       4016.2380      0.39082386
       4017.2007      0.37537936
       4018.1633      0.33528772
       4019.1260      0.35136275
       4020.0887      0.36937327
       4021.0514      0.35223596
       4022.0141      0.37763915
       4022.9767      0.37740673
       4023.9394      0.39494130
       4024.9021      0.36967471
       4025.8648      0.36758534
       4026.8275      0.33413230
       4027.7902      0.36896411
       4028.7528      0.37693102
       4029.7155      0.33959130
       4030.6782      0.33022554
       4031.6409      0.38375550
       4032.6036      0.35693386
       4033.5662      0.34852070
       4034.5289      0.34850476
       4035.4916      0.40349026
       4036.4543      0.39894598
       4037.4170      0.31933055
       4038.3797      0.33447629
       4039.3423      0.37417567
       4040.3050      0.33770161
       4041.2677      0.37209651
       4042.2304      0.35246506
       4043.1931      0.36226706
       4044.1557      0.37156209
       4045.1184      0.39125212
       4046.0811      0.40241120
       4047.0438      0.38878002
       4048.0065      0.35971918
       4048.9692      0.37609884
       4049.9318      0.34428573
       4050.8945      0.35107341
       4051.8572      0.39755866
       4052.8199      0.36416961
       4053.7826      0.38851769
       4054.7452      0.38389531
       4055.7079      0.41248884
       4056.6706      0.37143334
       4057.6333      0.37650535
       4058.5960      0.39684604
       4059.5587      0.37921628
       4060.5213      0.38875517
       4061.4840      0.38202659
       4062.4467      0.36807042
       4063.4094      0.34276011
       4064.3721      0.33244769
       4065.3348      0.35862800
       4066.2974      0.38107454
       4067.2601      0.39706402
       4068.2228      0.39840722
       4069.1855      0.35761836
       4070.1482      0.36112480
       4071.1108      0.38800835
       4072.0735      0.39094604
       4073.0362      0.36248210
       4073.9989      0.39337750
       4074.9616      0.36201536
       4075.9243      0.39389208
       4076.8869      0.39542323
       4077.8496      0.37818217
       4078.8123      0.38723818
       4079.7750      0.35650875
       4080.7377      0.35803653
       4081.7003      0.38059366
       4082.6630      0.34981895
       4083.6257      0.35959941
       4084.5884      0.39354714
       4085.5511      0.37384516
       4086.5138      0.33374590
       4087.4764      0.31789270
       4088.4391      0.38165062
       4089.4018      0.38560920
       4090.3645      0.38552172
       4091.3272      0.41369028
       4092.2898      0.37537841
       4093.2525      0.34920847
       4094.2152      0.33462313
       4095.1779      0.36696233
       4096.1406      0.41085128
       4097.1033      0.34384941
       4098.0659      0.35880721
       4099.0286      0.31148821
       4099.9913      0.34589631
       4100.9540      0.35401382
       4101.9167      0.33904883
       4102.8794      0.33475368
       4103.8420      0.39542687
       4104.8047      0.35830459
       4105.7674      0.35925130
       4106.7301      0.31796903
       4107.6928      0.34008954
       4108.6554      0.32097150
       4109.6181      0.29815448
       4110.5808      0.36226526
       4111.5435      0.37163365
       4112.5062      0.32016581
       4113.4689      0.32224885
       4114.4315      0.31642423
       4115.3942      0.29761566
       4116.3569      0.37579755
       4117.3196      0.39337233
       4118.2823      0.36951791
       4119.2449      0.34719396
       4120.2076      0.38154649
       4121.1703      0.38569958
       4122.1330      0.40964746
       4123.0957      0.39105112
       4124.0584      0.40866015
       4125.0210      0.41034427
       4125.9837      0.42571710
       4126.9464      0.37282189
       4127.9091      0.35563442
       4128.8718      0.35178323
       4129.8344      0.34880979
       4130.7971      0.37518471
       4131.7598      0.36789037
       4132.7225      0.39364363
       4133.6852      0.33820509
       4134.6479      0.34284137
       4135.6105      0.35782775
       4136.5732      0.39972283
       4137.5359      0.35764988
       4138.4986      0.37791375
       4139.4613      0.37983173
       4140.4239      0.36970048
       4141.3866      0.38766270
       4142.3493      0.38294901
       4143.3120      0.42467296
       4144.2747      0.41111664
       4145.2374      0.37044769
       4146.2000      0.42534013
       4147.1627      0.40275944
       4148.1254      0.35280132
       4149.0881      0.38032073
       4150.0508      0.39585679
       4151.0135      0.39487001
       4151.9761      0.36297589
       4152.9388      0.39398393
       4153.9015      0.39415403
       4154.8642      0.41568389
       4155.8269      0.40160758
       4156.7895      0.38016158
       4157.7522      0.41695872
       4158.7149      0.38916499
       4159.6776      0.38629575
       4160.6403      0.36944318
       4161.6030      0.34309485
       4162.5656      0.40675780
       4163.5283      0.42308757
       4164.4910      0.43936057
       4165.4537      0.44121872
       4166.4164      0.43018339
       4167.3790      0.40501271
       4168.3417      0.35821431
       4169.3044      0.39843589
       4170.2671      0.45377583
       4171.2298      0.47306216
       4172.1925      0.43427976
       4173.1551      0.40897690
       4174.1178      0.39669055
       4175.0805      0.43156586
       4176.0432      0.39697171
       4177.0059      0.37007085
       4177.9685      0.36164122
       4178.9312      0.37442902
       4179.8939      0.38011519
       4180.8566      0.43365503
       4181.8193      0.41825515
       4182.7820      0.33180594
       4183.7446      0.32640664
       4184.7073      0.40049022
       4185.6700      0.38169711
       4186.6327      0.41261078
       4187.5954      0.42805389
       4188.5580      0.45492656
       4189.5207      0.41647289
       4190.4834      0.39632477
       4191.4461      0.38342757
       4192.4088      0.39239796
       4193.3715      0.41578812
       4194.3341      0.40285781
       4195.2968      0.42364150
       4196.2595      0.42312511
       4197.2222      0.39217562
       4198.1849      0.42836145
       4199.1476      0.36502230
       4200.1102      0.36985781
       4201.0729      0.37318687
       4202.0356      0.38491536
       4202.9983      0.40487787
       4203.9610      0.38210609
       4204.9236      0.38071502
       4205.8863      0.36486418
       4206.8490      0.39002413
       4207.8117      0.37467571
       4208.7744      0.40113339
       4209.7371      0.41492464
       4210.6997      0.39843963
       4211.6624      0.42447099
       4212.6251      0.45149320
       4213.5878      0.38474037
       4214.5505      0.39197674
       4215.5131      0.42553352
       4216.4758      0.38614967
       4217.4385      0.38101974
       4218.4012      0.45089211
       4219.3639      0.42324244
       4220.3266      0.47628661
       4221.2892      0.43065081
       4222.2519      0.44398718
       4223.2146      0.42142161
       4224.1773      0.39147504
       4225.1400      0.39546683
       4226.1026      0.38271350
       4227.0653      0.38784892
       4228.0280      0.40302631
       4228.9907      0.36131694
       4229.9534      0.39073316
       4230.9161      0.41605341
       4231.8787      0.38989292
       4232.8414      0.39956081
       4233.8041      0.42257609
       4234.7668      0.40574523
       4235.7295      0.43257852
       4236.6922      0.42662982
       4237.6548      0.35814355
       4238.6175      0.38145194
       4239.5802      0.40769411
       4240.5429      0.39614618
       4241.5056      0.37954324
       4242.4682      0.38977649
       4243.4309      0.39206225
       4244.3936      0.40295623
       4245.3563      0.44811609
       4246.3190      0.45193160
       4247.2817      0.42266930
       4248.2443      0.41898083
       4249.2070      0.38213056
       4250.1697      0.43570849
       4251.1324      0.40064965
       4252.0951      0.42766126
       4253.0577      0.45307571
       4254.0204      0.41808664
       4254.9831      0.38518655
       4255.9458      0.43189124
       4256.9085      0.42936132
       4257.8712      0.41916014
       4258.8338      0.42576211
       4259.7965      0.38357733
       4260.7592      0.43750124
       4261.7219      0.46430113
       4262.6846      0.43312929
       4263.6472      0.35285205
       4264.6099      0.41711517
       4265.5726      0.43976518
       4266.5353      0.42851078
       4267.4980      0.45521230
       4268.4607      0.44200156
       4269.4233      0.42758772
       4270.3860      0.44107116
       4271.3487      0.41063842
       4272.3114      0.43252567
       4273.2741      0.39239401
       4274.2367      0.42059458
       4275.1994      0.42922019
       4276.1621      0.36545940
       4277.1248      0.42431696
       4278.0875      0.36759848
       4279.0502      0.44051478
       4280.0128      0.42268935
       4280.9755      0.41431706
       4281.9382      0.37325777
       4282.9009      0.43901599
       4283.8636      0.44657916
       4284.8263      0.43494361
       4285.7889      0.38384496
       4286.7516      0.39266110
       4287.7143      0.36823658
       4288.6770      0.37578227
       4289.6397      0.38427155
       4290.6023      0.43779045
       4291.5650      0.41129827
       4292.5277      0.42175280
       4293.4904      0.37189715
       4294.4531      0.35593011
       4295.4158      0.40394776
       4296.3784      0.40936504
       4297.3411      0.37787356
       4298.3038      0.36908757
       4299.2665      0.37651848
       4300.2292      0.40835733
       4301.1918      0.36247249
       4302.1545      0.32105253
       4303.1172      0.38338882
       4304.0799      0.33420250
       4305.0426      0.36028418
       4306.0053      0.34801943
       4306.9679      0.36950949
       4307.9306      0.33589120
       4308.8933      0.34436413
       4309.8560      0.38037447
       4310.8187      0.40859734
       4311.7813      0.38848696
       4312.7440      0.41299739
       4313.7067      0.38009036
       4314.6694      0.39760764
       4315.6321      0.42063762
       4316.5948      0.41166775
       4317.5574      0.39515218
       4318.5201      0.43070211
       4319.4828      0.40458850
       4320.4455      0.43956989
       4321.4082      0.41980367
       4322.3709      0.43064314
       4323.3335      0.41975170
       4324.2962      0.34152937
       4325.2589      0.40339915
       4326.2216      0.40150645
       4327.1843      0.45668165
       4328.1469      0.39208621
       4329.1096      0.45453832
       4330.0723      0.38900539
       4331.0350      0.39835511
       4331.9977      0.38950915
       4332.9604      0.38344404
       4333.9230      0.41514079
       4334.8857      0.40275612
       4335.8484      0.40681747
       4336.8111      0.43127890
       4337.7738      0.47115971
       4338.7364      0.46712912
       4339.6991      0.48562201
       4340.6618      0.48694223
       4341.6245      0.47049362
       4342.5872      0.45063991
       4343.5499      0.42672142
       4344.5125      0.37853806
       4345.4752      0.38773684
       4346.4379      0.39021051
       4347.4006      0.34216005
       4348.3633      0.37439353
       4349.3259      0.38688397
       4350.2886      0.40582897
       4351.2513      0.36270010
       4352.2140      0.39171096
       4353.1767      0.44772061
       4354.1394      0.42619998
       4355.1020      0.42883451
       4356.0647      0.40100140
       4357.0274      0.43496528
       4357.9901      0.45248454
       4358.9528      0.50364875
       4359.9154      0.44685692
       4360.8781      0.47575825
       4361.8408      0.47230176
       4362.8035      0.48261746
       4363.7662      0.44056449
       4364.7289      0.42120101
       4365.6915      0.46313986
       4366.6542      0.47306653
       4367.6169      0.42876583
       4368.5796      0.40906177
       4369.5423      0.41097129
       4370.5050      0.43772715
       4371.4676      0.40946017
       4372.4303      0.41470347
       4373.3930      0.38870887
       4374.3557      0.39707821
       4375.3184      0.43223463
       4376.2810      0.48725905
       4377.2437      0.43984882
       4378.2064      0.40312788
       4379.1691      0.42585020
       4380.1318      0.45975098
       4381.0945      0.48030572
       4382.0571      0.42379213
       4383.0198      0.39713601
       4383.9825      0.42538665
       4384.9452      0.39675958
       4385.9079      0.38708805
       4386.8705      0.46035696
       4387.8332      0.43235798
       4388.7959      0.40461073
       4389.7586      0.44979965
       4390.7213      0.46429820
       4391.6840      0.44317385
       4392.6466      0.46250984
       4393.6093      0.41762196
       4394.5720      0.45575163
       4395.5347      0.41966053
       4396.4974      0.41250634
       4397.4600      0.41814779
       4398.4227      0.46882340
       4399.3854      0.39975935
       4400.3481      0.40557770
       4401.3108      0.44594523
       4402.2735      0.42946458
       4403.2361      0.47259547
       4404.1988      0.41533322
       4405.1615      0.42070907
       4406.1242      0.42300635
       4407.0869      0.44880984
       4408.0496      0.44446747
       4409.0122      0.46674370
       4409.9749      0.44267995
       4410.9376      0.46345607
       4411.9003      0.43204661
       4412.8630      0.41456211
       4413.8256      0.43942722
       4414.7883      0.42320824
       4415.7510      0.41375964
       4416.7137      0.41834874
       4417.6764      0.44933950
       4418.6391      0.46052582
       4419.6017      0.43660849
       4420.5644      0.48781878
       4421.5271      0.42542272
       4422.4898      0.46434831
       4423.4525      0.43501988
       4424.4151      0.40323169
       4425.3778      0.45345013
       4426.3405      0.49581680
       4427.3032      0.43462325
       4428.2659      0.46640960
       4429.2286      0.46917880
       4430.1912      0.48620159
       4431.1539      0.44289945
       4432.1166      0.45582685
       4433.0793      0.45105633
       4434.0420      0.44846762
       4435.0046      0.45983550
       4435.9673      0.44839796
       4436.9300      0.43429764
       4437.8927      0.44850380
       4438.8554      0.43549897
       4439.8181      0.46940108
       4440.7807      0.40245050
       4441.7434      0.45441538
       4442.7061      0.44184815
       4443.6688      0.47486075
       4444.6315      0.46763347
       4445.5941      0.48619385
       4446.5568      0.42085636
       4447.5195      0.45989815
       4448.4822      0.46083991
       4449.4449      0.48057484
       4450.4076      0.41074308
       4451.3702      0.42901745
       4452.3329      0.39263497
       4453.2956      0.42224757
       4454.2583      0.46001073
       4455.2210      0.47290029
       4456.1837      0.42379430
       4457.1463      0.42793315
       4458.1090      0.44272749
       4459.0717      0.45832623
       4460.0344      0.44391110
       4460.9971      0.43692809
       4461.9597      0.46494102
       4462.9224      0.44675923
       4463.8851      0.48317077
       4464.8478      0.42140740
       4465.8105      0.43357757
       4466.7732      0.45182337
       4467.7358      0.49725568
       4468.6985      0.49437888
       4469.6612      0.52265055
       4470.6239      0.47302366
       4471.5866      0.46241444
       4472.5492      0.50772186
       4473.5119      0.47450446
       4474.4746      0.49352701
       4475.4373      0.48625435
       4476.4000      0.43486228
       4477.3627      0.42776308
       4478.3253      0.47985019
       4479.2880      0.48292082
       4480.2507      0.49239909
       4481.2134      0.46601232
       4482.1761      0.49723832
       4483.1387      0.50851114
       4484.1014      0.51829140
       4485.0641      0.46317698
       4486.0268      0.46828575
       4486.9895      0.42484470
       4487.9522      0.48060033
       4488.9148      0.46271739
       4489.8775      0.47546732
       4490.8402      0.46840591
       4491.8029      0.47938464
       4492.7656      0.46582772
       4493.7283      0.44067271
       4494.6909      0.52291138
       4495.6536      0.47057056
       4496.6163      0.49076772
       4497.5790      0.50654536
       4498.5417      0.52231813
       4499.5043      0.50573414
       4500.4670      0.54049978
       4501.4297      0.47879378
       4502.3924      0.49848450
       4503.3551      0.48534529
       4504.3178      0.51861583
       4505.2804      0.51041795
       4506.2431      0.53449939
       4507.2058      0.49014591
       4508.1685      0.49617595
       4509.1312      0.51424636
       4510.0938      0.46124942
       4511.0565      0.47952024
       4512.0192      0.50559590
       4512.9819      0.52985348
       4513.9446      0.52649138
       4514.9073      0.51164303
       4515.8699      0.41968752
       4516.8326      0.46015828
       4517.7953      0.47967559
       4518.7580      0.43756475
       4519.7207      0.50994042
       4520.6833      0.50753747
       4521.6460      0.52776287
       4522.6087      0.50270888
       4523.5714      0.42215812
       4524.5341      0.47310326
       4525.4968      0.48492733
       4526.4594      0.47129956
       4527.4221      0.47717370
       4528.3848      0.46759122
       4529.3475      0.47931821
       4530.3102      0.47488416
       4531.2728      0.49554626
       4532.2355      0.50756550
       4533.1982      0.44984399
       4534.1609      0.49017732
       4535.1236      0.49320397
       4536.0863      0.49054301
       4537.0489      0.47375347
       4538.0116      0.48734698
       4538.9743      0.50563210
       4539.9370      0.53558181
       4540.8997      0.52108687
       4541.8624      0.47585278
       4542.8250      0.47695996
       4543.7877      0.48239812
       4544.7504      0.47981054
       4545.7131      0.48969185
       4546.6758      0.48381047
       4547.6384      0.52766564
       4548.6011      0.46048350
       4549.5638      0.46322171
       4550.5265      0.50744277
       4551.4892      0.48641197
       4552.4519      0.43026674
       4553.4145      0.46012474
       4554.3772      0.48722563
       4555.3399      0.51593317
       4556.3026      0.52515120
       4557.2653      0.53542764
       4558.2279      0.42703920
       4559.1906      0.48353474
       4560.1533      0.51361521
       4561.1160      0.48064956
       4562.0787      0.50610959
       4563.0414      0.49772967
       4564.0040      0.56845502
       4564.9667      0.45984682
       4565.9294      0.51339197
       4566.8921      0.50169896
       4567.8548      0.49054208
       4568.8174      0.49793740
       4569.7801      0.48840516
       4570.7428      0.52949907
       4571.7055      0.51045035
       4572.6682      0.47913374
       4573.6309      0.51118446
       4574.5935      0.45551016
       4575.5562      0.49093921
       4576.5189      0.47642571
       4577.4816      0.48177719
       4578.4443      0.47383444
       4579.4070      0.48674775
       4580.3696      0.49525891
       4581.3323      0.50467767
       4582.2950      0.47267454
       4583.2577      0.42912204
       4584.2204      0.47913361
       4585.1830      0.47139765
       4586.1457      0.47588957
       4587.1084      0.48353768
       4588.0711      0.48165448
       4589.0338      0.50774137
       4589.9965      0.51367366
       4590.9591      0.51649278
       4591.9218      0.49724160
       4592.8845      0.52557009
       4593.8472      0.46982475
       4594.8099      0.58518468
       4595.7725      0.49466311
       4596.7352      0.53395666
       4597.6979      0.55735039
       4598.6606      0.54460632
       4599.6233      0.62035505
       4600.5860      0.64334191
       4601.5486      0.59198101
       4602.5113      0.56737107
       4603.4740      0.54346252
       4604.4367      0.55305077
       4605.3994      0.55968986
       4606.3620      0.50275730
       4607.3247      0.49437724
       4608.2874      0.53710571
       4609.2501      0.53633784
       4610.2128      0.49437725
       4611.1755      0.53712180
       4612.1381      0.46716581
       4613.1008      0.54831411
       4614.0635      0.52483247
       4615.0262      0.48500791
       4615.9889      0.53896901
       4616.9515      0.53910381
       4617.9142      0.45083533
       4618.8769      0.50631732
       4619.8396      0.54647553
       4620.8023      0.52032117
       4621.7650      0.50779006
       4622.7276      0.51849218
       4623.6903      0.47019871
       4624.6530      0.50931830
       4625.6157      0.49550321
       4626.5784      0.50566808
       4627.5411      0.47815314
       4628.5037      0.49190859
       4629.4664      0.52742364
       4630.4291      0.46406084
       4631.3918      0.45909419
       4632.3545      0.43127388
       4633.3171      0.49983848
       4634.2798      0.50679217
       4635.2425      0.51008891
       4636.2052      0.52130624
       4637.1679      0.48711029
       4638.1306      0.50388471
       4639.0932      0.52221769
       4640.0559      0.52834143
       4641.0186      0.49443929
       4641.9813      0.51682838
       4642.9440      0.48927785
       4643.9066      0.52064843
       4644.8693      0.43774028
       4645.8320      0.50943513
       4646.7947      0.45022910
       4647.7574      0.47352016
       4648.7201      0.51637171
       4649.6827      0.52181492
       4650.6454      0.53417441
       4651.6081      0.52825604
       4652.5708      0.46914546
       4653.5335      0.46322885
       4654.4961      0.47746396
       4655.4588      0.49214491
       4656.4215      0.50001467
       4657.3842      0.48230285
       4658.3469      0.46478655
       4659.3096      0.47787686
       4660.2722      0.48247233
       4661.2349      0.47696066
       4662.1976      0.51234640
       4663.1603      0.45929181
       4664.1230      0.49784255
       4665.0857      0.52990096
       4666.0483      0.46256378
       4667.0110      0.50187083
       4667.9737      0.51479250
       4668.9364      0.50063187
       4669.8991      0.43742553
       4670.8617      0.48517908
       4671.8244      0.53675756
       4672.7871      0.51473046
       4673.7498      0.49516774
       4674.7125      0.51672926
       4675.6752      0.50013723
       4676.6378      0.48348321
       4677.6005      0.49684814
       4678.5632      0.52930453
       4679.5259      0.53216651
       4680.4886      0.49701599
       4681.4512      0.49658349
       4682.4139      0.57425012
       4683.3766      0.51875657
       4684.3393      0.50644228
       4685.3020      0.51038997
       4686.2647      0.50615778
       4687.2273      0.49946420
       4688.1900      0.48756336
       4689.1527      0.48833252
       4690.1154      0.49150939
       4691.0781      0.49173762
       4692.0407      0.52036041
       4693.0034      0.52701056
       4693.9661      0.48462906
       4694.9288      0.49428965
       4695.8915      0.48889970
       4696.8542      0.43590426
       4697.8168      0.44328865
       4698.7795      0.42311008
       4699.7422      0.44906898
       4700.7049      0.46520569
       4701.6676      0.52466130
       4702.6302      0.50935880
       4703.5929      0.49553401
       4704.5556      0.50247265
       4705.5183      0.53636192
       4706.4810      0.53109005
       4707.4437      0.48197686
       4708.4063      0.50420202
       4709.3690      0.49408024
       4710.3317      0.44038756
       4711.2944      0.44925769
       4712.2571      0.47949895
       4713.2198      0.51935904
       4714.1824      0.47200224
       4715.1451      0.44646242
       4716.1078      0.44439226
       4717.0705      0.46492585
       4718.0332      0.50997855
       4718.9958      0.51305965
       4719.9585      0.49930319
       4720.9212      0.47648739
       4721.8839      0.48090096
       4722.8466      0.49103048
       4723.8093      0.46954996
       4724.7719      0.43440418
       4725.7346      0.45208667
       4726.6973      0.45886002
       4727.6600      0.46630903
       4728.6227      0.45048428
       4729.5853      0.51668645
       4730.5480      0.52608363
       4731.5107      0.46983387
       4732.4734      0.45781475
       4733.4361      0.50686631
       4734.3988      0.47804204
       4735.3614      0.46559413
       4736.3241      0.53141266
       4737.2868      0.51848755
       4738.2495      0.51704653
       4739.2122      0.45124925
       4740.1748      0.46637135
       4741.1375      0.50778791
       4742.1002      0.45027167
       4743.0629      0.50127213
       4744.0256      0.48651300
       4744.9883      0.45812785
       4745.9509      0.42584810
       4746.9136      0.51560132
       4747.8763      0.51966397
       4748.8390      0.45494579
       4749.8017      0.52169811
       4750.7643      0.49033428
       4751.7270      0.50126875
       4752.6897      0.50854182
       4753.6524      0.50678269
       4754.6151      0.47490543
       4755.5778      0.49182973
       4756.5404      0.50226898
       4757.5031      0.60625910
       4758.4658      0.43366530
       4759.4285      0.46324807
       4760.3912      0.41563746
       4761.3539      0.46514227
       4762.3165      0.55720250
       4763.2792      0.50149471
       4764.2419      0.44612744
       4765.2046      0.47355742
       4766.1673      0.50128262
       4767.1299      0.48890233
       4768.0926      0.50128857
       4769.0553      0.55129119
       4770.0180      0.50528951
       4770.9807      0.45320809
       4771.9434      0.48792294
       4772.9060      0.46330774
       4773.8687      0.48383447
       4774.8314      0.50379053
       4775.7941      0.48431568
       4776.7568      0.47480075
       4777.7194      0.49243980
       4778.6821      0.52762391
       4779.6448      0.50462066
       4780.6075      0.43784007
       4781.5702      0.44631538
       4782.5329      0.50831164
       4783.4955      0.48298510
       4784.4582      0.46883652
       4785.4209      0.51415569
       4786.3836      0.49394886
       4787.3463      0.48175587
       4788.3089      0.45554791
       4789.2716      0.51393270
       4790.2343      0.52066895
       4791.1970      0.54509585
       4792.1597      0.54406623
       4793.1224      0.53107265
       4794.0850      0.57809806
       4795.0477      0.46371548
       4796.0104      0.49655791
       4796.9731      0.51285164
       4797.9358      0.50399366
       4798.8985      0.48491098
       4799.8611      0.52812243
       4800.8238      0.50985873
       4801.7865      0.55123703
       4802.7492      0.42604343
       4803.7119      0.50604470
       4804.6745      0.48454243
       4805.6372      0.50199226
       4806.5999      0.48959551
       4807.5626      0.50629479
       4808.5253      0.52026283
       4809.4880      0.50254968
       4810.4506      0.48927260
       4811.4133      0.49365291
       4812.3760      0.46981897
       4813.3387      0.47548486
       4814.3014      0.51349179
       4815.2640      0.51668481
       4816.2267      0.48436665
       4817.1894      0.44910043
       4818.1521      0.49077538
       4819.1148      0.52637545
       4820.0775      0.48745705
       4821.0401      0.46081534
       4822.0028      0.55184856
       4822.9655      0.53444131
       4823.9282      0.50749102
       4824.8909      0.52814001
       4825.8535      0.46908536
       4826.8162      0.42149387
       4827.7789      0.45291667
       4828.7416      0.49348674
       4829.7043      0.45949136
       4830.6670      0.43591989
       4831.6296      0.49747965
       4832.5923      0.47981720
       4833.5550      0.44820569
       4834.5177      0.42993499
       4835.4804      0.48496834
       4836.4430      0.44845880
       4837.4057      0.40167849
       4838.3684      0.46661963
       4839.3311      0.47770291
       4840.2938      0.56788553
       4841.2565      0.76046993
       4842.2191      0.76494850
       4843.1818      0.77991867
       4844.1445      0.85032463
       4845.1072      0.80440675
       4846.0699      0.74430543
       4847.0326      0.68877657
       4847.9952      0.57436460
       4848.9579      0.49309186
       4849.9206      0.44280333
       4850.8833      0.42954842
       4851.8460      0.44642422
       4852.8086      0.45633587
       4853.7713      0.41443702
       4854.7340      0.38818876
       4855.6967      0.44420707
       4856.6594      0.44783426
       4857.6221      0.48678957
       4858.5847      0.42066587
       4859.5474      0.47902787
       4860.5101      0.46937338
       4861.4728      0.43317073
       4862.4355      0.41815447
       4863.3981      0.47217543
       4864.3608      0.45516094
       4865.3235      0.50320795
       4866.2862      0.47360917
       4867.2489      0.42788126
       4868.2116      0.41577849
       4869.1742      0.43479150
       4870.1369      0.39604049
       4871.0996      0.43633253
       4872.0623      0.43099141
       4873.0250      0.44839025
       4873.9876      0.48473153
       4874.9503      0.44868356
       4875.9130      0.46622535
       4876.8757      0.45956131
       4877.8384      0.48447197
       4878.8011      0.45730229
       4879.7637      0.50282459
       4880.7264      0.46746462
       4881.6891      0.47710990
       4882.6518      0.45234142
       4883.6145      0.50767004
       4884.5772      0.48580530
       4885.5398      0.47198840
       4886.5025      0.45603646
       4887.4652      0.46329416
       4888.4279      0.42397710
       4889.3906      0.49029426
       4890.3532      0.48633317
       4891.3159      0.41338643
       4892.2786      0.38077442
       4893.2413      0.42298183
       4894.2040      0.43261383
       4895.1667      0.43214901
       4896.1293      0.41724324
       4897.0920      0.39442950
       4898.0547      0.39794192
       4899.0174      0.45387811
       4899.9801      0.45722686
       4900.9427      0.38957787
       4901.9054      0.41497715
       4902.8681      0.38550747
       4903.8308      0.44753600
       4904.7935      0.42065153
       4905.7562      0.45245884
       4906.7188      0.40122324
       4907.6815      0.43218375
       4908.6442      0.42121243
       4909.6069      0.43260788
       4910.5696      0.45654477
       4911.5322      0.40602679
       4912.4949      0.36078750
       4913.4576      0.34633960
       4914.4203      0.36898774
       4915.3830      0.42678143
       4916.3457      0.58053492
       4917.3083      0.75870657
       4918.2710      0.61969732
       4919.2337      0.62574516
       4920.1964      0.55788854
       4921.1591      0.40623966
       4922.1217      0.43745695
       4923.0844      0.42232311
       4924.0471      0.22749645
       4925.0098    -0.034422813
       4925.9725     0.039031356
       4926.9352      0.15386023
       4927.8978      0.13596211
       4928.8605      0.31602750
       4929.8232      0.38178440
       4930.7859      0.45470638
       4931.7486      0.40792151
       4932.7113      0.34427959
       4933.6739      0.36733743
       4934.6366      0.38536495
       4935.5993      0.46971333
       4936.5620      0.49846950
       4937.5247      0.52644711
       4938.4873      0.47714522
       4939.4500      0.45365566
       4940.4127      0.41891886
       4941.3754      0.42326908
       4942.3381      0.41521527
       4943.3008      0.39921469
       4944.2634      0.40174740
       4945.2261      0.35308450
       4946.1888      0.37179571
       4947.1515      0.30384567
       4948.1142      0.32778278
       4949.0768      0.28681548
       4950.0395      0.31763154
       4951.0022      0.31325830
       4951.9649      0.36344550
       4952.9276      0.32186072
       4953.8903      0.32567322
       4954.8529      0.34342365
       4955.8156      0.30592888
       4956.7783      0.32085411
       4957.7410      0.31181440
       4958.7037      0.29408928
       4959.6663      0.29864066
       4960.6290      0.27842211
       4961.5917      0.29834052
       4962.5544      0.31720416
       4963.5171      0.29841992
       4964.4798      0.28520505
       4965.4424      0.31460773
       4966.4051      0.26753204
       4967.3678      0.26082080
       4968.3305      0.27305767
       4969.2932      0.23300136
       4970.2559      0.25987364
       4971.2185      0.24820267
       4972.1812      0.22567443
       4973.1439      0.24043361
       4974.1066      0.20902056
       4975.0693      0.22355120
       4976.0319      0.22541867
       4976.9946      0.21141740
       4977.9573      0.28122226
       4978.9200      0.25207285
       4979.8827      0.33570594
       4980.8454      0.34975870
       4981.8080      0.38565010
       4982.7707      0.51533871
       4983.7334      0.50817039
       4984.6961      0.50926460
       4985.6588      0.49781631
       4986.6214      0.46499005
       4987.5841      0.40063472
       4988.5468      0.34724900
       4989.5095      0.30624623
       4990.4722      0.24348229
       4991.4349      0.24588484
       4992.3975      0.28723792
       4993.3602      0.17804922
       4994.3229      0.19752079
       4995.2856      0.20242895
       4996.2483      0.19973927
       4997.2109      0.21397776
       4998.1736      0.19845074
       4999.1363      0.14903812
       5000.0990      0.14668226
       5001.0617      0.19755257
       5002.0244      0.18962189
       5002.9870      0.18053855
       5003.9497      0.17046115
       5004.9124      0.20778397
       5005.8751      0.19651125
       5006.8378      0.18803755
       5007.8004      0.14919728
       5008.7631      0.14413567
       5009.7258      0.18402392
       5010.6885      0.19338666
       5011.6512     0.098290902
       5012.6139      0.13467574
       5013.5765      0.13560221
       5014.5392      0.18744319
       5015.5019      0.12794457
       5016.4646      0.10726288
       5017.4273      0.16205234
       5018.3900      0.16215555
       5019.3526      0.12184904
       5020.3153      0.11545149
       5153.6102      0.87320628
       5154.3232      0.80894168
       5155.0361      0.82089714
       5155.7490      0.81900053
       5156.4619      0.88540993
       5157.1748      0.96104856
       5157.8877      0.90700191
       5158.6006      0.84378634
       5159.3135      0.80984671
       5160.0264      0.91414637
       5160.7393      0.97633165
       5161.4522      0.96249955
       5162.1651      0.90423160
       5162.8780      0.90989271
       5163.5910      0.85238621
       5164.3039      0.84089095
       5165.0168      0.78863432
       5165.7297      0.78179037
       5166.4426      0.75906643
       5167.1555      0.76914602
       5167.8684      0.78830030
       5168.5813      0.70572409
       5169.2942      0.82769914
       5170.0071      0.81046152
       5170.7200      0.73569809
       5171.4329      0.69436723
       5172.1458      0.70997526
       5172.8587      0.77432121
       5173.5717      0.78932054
       5174.2846      0.82366375
       5174.9975      0.90349111
       5175.7104      0.91005939
       5176.4233      0.87014839
       5177.1362      0.93102358
       5177.8491      0.88053589
       5178.5620      0.76637423
       5179.2749      0.71797654
       5179.9878      0.73299571
       5180.7007      0.70011547
       5181.4136      0.74023405
       5182.1265      0.73866693
       5182.8395      0.75400813
       5183.5524      0.74331197
       5184.2653      0.80711052
       5184.9782      0.83881252
       5185.6911      0.86446613
       5186.4040      0.94674083
       5187.1169      0.87139922
       5187.8298      0.85250658
       5188.5427      0.86341564
       5189.2556      0.86505937
       5189.9685      0.88943215
       5190.6814      0.91833808
       5191.3943      0.89581439
       5192.1073      0.81394960
       5192.8202      0.87750215
       5193.5331      0.93363205
       5194.2460      0.86078300
       5194.9589      0.83758288
       5195.6718      0.89646886
       5196.3847      0.89557503
       5197.0976      0.90401537
       5197.8105       1.0275863
       5198.5234      0.97974487
       5199.2363      0.94838263
       5199.9492      0.92415956
       5200.6621      0.88425315
       5201.3751      0.85425795
       5202.0880      0.87522720
       5202.8009      0.80817064
       5203.5138      0.78357868
       5204.2267      0.76300524
       5204.9396      0.77670021
       5205.6525      0.78409829
       5206.3654      0.84230445
       5207.0783      0.95614905
       5207.7912      0.89073919
       5208.5041      0.83565540
       5209.2170      0.88534895
       5209.9299      0.91667028
       5210.6429      0.95050355
       5211.3558      0.99182641
       5212.0687      0.92972964
       5212.7816      0.96433246
       5213.4945       1.0105457
       5214.2074       1.0043674
       5214.9203      0.97978698
       5215.6332       1.0266263
       5216.3461      0.87797017
       5217.0590      0.79633330
       5217.7719      0.99698910
       5218.4848      0.94111610
       5219.1977      0.95083071
       5219.9107      0.96739590
       5220.6236      0.90304628
       5221.3365       1.0742863
       5222.0494       1.1573485
       5222.7623      0.93428877
       5223.4752      0.89207154
       5224.1881      0.78832575
       5224.9010      0.78759142
       5225.6139      0.98157846
       5226.3268       1.0224043
       5227.0397      0.90250889
       5227.7526      0.85812497
       5228.4655      0.92231665
       5229.1785      0.99167621
       5229.8914       1.0119530
       5230.6043      0.97112127
       5231.3172      0.97655692
       5232.0301      0.94810968
       5232.7430      0.86822281
       5233.4559      0.84344435
       5234.1688      0.99127129
       5234.8817      0.96756554
       5235.5946      0.98319107
       5236.3075      0.99112762
       5237.0204       1.0531009
       5237.7333       1.0877343
       5238.4462       1.0512848
       5239.1592      0.97809011
       5239.8721      0.94543666
       5240.5850      0.95043448
       5241.2979      0.86594483
       5242.0108      0.94569725
       5242.7237      0.95841945
       5243.4366      0.86041419
       5244.1495      0.90012039
       5244.8624      0.94654903
       5245.5753      0.88938822
       5246.2882      0.88191656
       5247.0011      0.92726500
       5247.7140      0.90455969
       5248.4270      0.85675783
       5249.1399      0.92845691
       5249.8528      0.91478984
       5250.5657      0.84877197
       5251.2786      0.85828427
       5251.9915      0.77475110
       5252.7044      0.77501014
       5253.4173      0.88564922
       5254.1302      0.92122068
       5254.8431      0.86345786
       5255.5560      0.89523640
       5256.2689      0.88047465
       5256.9818      0.88774781
       5257.6948      0.88146761
       5258.4077      0.86679432
       5259.1206      0.94928826
       5259.8335      0.99477167
       5260.5464      0.87674828
       5261.2593      0.85851467
       5261.9722      0.86465073
       5262.6851      0.78541213
       5263.3980      0.73552974
       5264.1109      0.69898510
       5264.8238      0.70867647
       5265.5367      0.80953924
       5266.2496      0.70232391
       5266.9626      0.68265480
       5267.6755      0.73569286
       5268.3884      0.85939952
       5269.1013      0.88699042
       5269.8142      0.78870403
       5270.5271      0.77535437
       5271.2400      0.81615701
       5271.9529      0.76517907
       5272.6658      0.89021720
       5273.3787      0.91110175
       5274.0916      0.81990570
       5274.8045      0.90315470
       5275.5174      0.94418850
       5276.2304      0.98408558
       5276.9433      0.95167998
       5277.6562      0.95840835
       5278.3691      0.93353607
       5279.0820      0.93604547
       5279.7949      0.87151754
       5280.5078      0.85237061
       5281.2207      0.84819400
       5281.9336      0.94991432
       5282.6465      0.92539864
       5283.3594      0.93347228
       5284.0723       1.0013966
       5284.7852      0.90621652
       5285.4982      0.82145112
       5286.2111      0.90883945
       5286.9240       1.0177231
       5287.6369      0.97812709
       5288.3498      0.93584245
       5289.0627       1.0251372
       5289.7756       1.0373572
       5290.4885      0.97167829
       5291.2014      0.82849289
       5291.9143      0.87845374
       5292.6272      0.92510243
       5293.3401      0.92726742
       5294.0530      0.80858868
       5294.7660      0.82914224
       5295.4789      0.82105403
       5296.1918      0.84122806
       5296.9047      0.91506164
       5297.6176      0.93416275
       5298.3305      0.90745899
       5299.0434      0.89927303
       5299.7563      0.81883923
       5300.4692      0.90695142
       5301.1821      0.86260013
       5301.8950      0.74776420
       5302.6079      0.82222778
       5303.3208      0.85661423
       5304.0337      0.88556188
       5304.7467      0.88918825
       5305.4596      0.91931464
       5306.1725      0.84033521
       5306.8854      0.94636385
       5307.5983      0.94070772
       5308.3112      0.95212952
       5309.0241      0.89216422
       5309.7370      0.94104518
       5310.4499      0.91949256
       5311.1628      0.96853880
       5311.8757      0.94024985
       5312.5886      0.97078652
       5313.3015       1.0631132
       5314.0145       1.0099361
       5314.7274      0.88135354
       5315.4403      0.83223541
       5316.1532      0.82761643
       5316.8661      0.85813018
       5317.5790      0.84856265
       5318.2919      0.80292504
       5319.0048      0.86641409
       5319.7177      0.84211969
       5320.4306      0.86198538
       5321.1435      0.83797214
       5321.8564      0.85784375
       5322.5693      0.88773834
       5323.2823      0.86151700
       5323.9952      0.78370576
       5324.7081      0.92032689
       5325.4210      0.90020445
       5326.1339      0.83391242
       5326.8468      0.81924451
       5327.5597      0.85153206
       5328.2726      0.83768683
       5328.9855      0.76705371
       5329.6984      0.83964851
       5330.4113      0.84503813
       5331.1242      0.86107992
       5331.8371      0.90974588
       5332.5501      0.87350189
       5333.2630      0.87905970
       5333.9759      0.98827977
       5334.6888      0.89104651
       5335.4017      0.87175603
       5336.1146      0.95236286
       5336.8275      0.94222686
       5337.5404      0.95509994
       5338.2533      0.92826465
       5338.9662      0.95939753
       5339.6791      0.94424650
       5340.3920      0.95150708
       5341.1049      0.90535419
       5341.8179      0.87137595
       5342.5308      0.81067618
       5343.2437      0.85243699
       5343.9566      0.92153794
       5344.6695      0.94064638
       5345.3824      0.81898388
       5346.0953      0.84815197
       5346.8082      0.99184352
       5347.5211      0.93352227
       5348.2340      0.89818729
       5348.9469      0.88986954
       5349.6598      0.82168273
       5350.3727      0.85676625
       5351.0857      0.94070784
       5351.7986      0.89870322
       5352.5115      0.83779750
       5353.2244      0.84570066
       5353.9373      0.84951310
       5354.6502      0.85243712
       5355.3631      0.94957072
       5356.0760      0.87802851
       5356.7889      0.87684701
       5357.5018       1.0080139
       5358.2147      0.97949897
       5358.9276      0.90102642
       5359.6405      0.93284326
       5360.3535      0.94700464
       5361.0664      0.99037532
       5361.7793      0.95706776
       5362.4922      0.97392669
       5363.2051      0.88335341
       5363.9180      0.94352300
       5364.6309      0.99738306
       5365.3438      0.94633377
       5366.0567      0.92159967
       5366.7696      0.81543401
       5367.4825      0.79476394
       5368.1954      0.90791426
       5368.9083      0.88355542
       5369.6212      0.83620097
       5370.3342      0.82519667
       5371.0471      0.90377652
       5371.7600       1.0106099
       5372.4729      0.94940831
       5373.1858      0.86438686
       5373.8987      0.81782046
       5374.6116      0.91472865
       5375.3245       1.0130681
       5376.0374      0.88718626
       5376.7503      0.95214077
       5377.4632      0.99868808
       5378.1761      0.95230123
       5378.8890      0.81433479
       5379.6020      0.94637460
       5380.3149      0.93132635
       5381.0278      0.97559767
       5381.7407      0.94008450
       5382.4536      0.99749141
       5383.1665      0.96407038
       5383.8794      0.91264815
       5384.5923      0.93806083
       5385.3052      0.88946996
       5386.0181       1.0331122
       5386.7310      0.94315385
       5387.4439      0.86131909
       5388.1568       1.0231522
       5388.8698       1.0618005
       5389.5827       1.0031049
       5390.2956       1.0210897
       5391.0085      0.94717870
       5391.7214      0.91108360
       5392.4343      0.90024683
       5393.1472      0.98051518
       5393.8601      0.92594178
       5394.5730      0.88062038
       5395.2859      0.86981313
       5395.9988      0.96115444
       5396.7117      0.97902722
       5397.4246      0.89873306
       5398.1376      0.84194352
       5398.8505      0.88749629
       5399.5634      0.81202584
       5400.2763      0.88499824
       5400.9892       1.0097743
       5401.7021      0.92857281
       5402.4150      0.88268738
       5403.1279       1.0025566
       5403.8408      0.96320934
       5404.5537      0.84339937
       5405.2666      0.90584935
       5405.9795      0.95246126
       5406.6924      0.89359235
       5407.4054      0.94058061
       5408.1183      0.96703224
       5408.8312      0.93905434
       5409.5441      0.80101424
       5410.2570      0.92899946
       5410.9699      0.85923315
       5411.6828      0.87632275
       5412.3957      0.91241895
       5413.1086      0.98658475
       5413.8215      0.95254777
       5414.5344       1.0346126
       5415.2473       1.0510317
       5415.9602      0.95344503
       5416.6732      0.90420085
       5417.3861      0.89079969
       5418.0990      0.91696829
       5418.8119      0.97140888
       5419.5248      0.88037860
       5420.2377       1.0496738
       5420.9506       1.0580039
       5421.6635       1.0825955
       5422.3764       1.0307729
       5423.0893       1.0369212
       5423.8022      0.98707984
       5424.5151       1.0285546
       5425.2280      0.94427728
       5425.9410      0.97954994
       5426.6539      0.95222279
       5427.3668       1.0403662
       5428.0797      0.98388327
       5428.7926       1.0216004
       5429.5055       1.1036032
       5430.2184       1.0007770
       5430.9313      0.92254720
       5431.6442       1.0797494
       5432.3571      0.97732238
       5433.0700       1.0513417
       5433.7829       1.1217517
       5434.4958       1.0348020
       5435.2087      0.96439276
       5435.9217      0.95084052
       5436.6346       1.0924254
       5437.3475       1.0311203
       5438.0604      0.99923886
       5438.7733      0.97265822
       5439.4862       1.0173206
       5440.1991       1.0106662
       5440.9120      0.93261944
       5441.6249       1.0470112
       5442.3378       1.0718960
       5443.0507      0.98033051
       5443.7636      0.96319384
       5444.4765      0.98178040
       5445.1895       1.0121575
       5445.9024      0.99600783
       5446.6153      0.97216852
       5447.3282      0.97077177
       5448.0411       1.0773930
       5448.7540      0.92613711
       5449.4669      0.81867704
       5450.1798      0.89874712
       5450.8927      0.84498764
       5451.6056       1.0602084
       5452.3185       1.0667294
       5453.0314      0.99063295
       5453.7443       1.0934464
       5454.4573       1.0165377
       5455.1702      0.93570083
       5455.8831      0.89153367
       5456.5960      0.84318746
       5457.3089      0.88307424
       5458.0218      0.96591598
       5458.7347       1.0039439
       5459.4476      0.97566728
       5460.1605      0.86623147
       5460.8734      0.91306798
       5461.5863      0.97886872
       5462.2992       1.0728005
       5463.0121      0.99459259
       5463.7251       1.0757936
       5464.4380       1.0068623
       5465.1509       1.0020371
       5465.8638      0.92934557
       5466.5767       1.0297530
       5467.2896      0.96008781
       5468.0025      0.97669337
       5468.7154      0.97960704
       5469.4283      0.98662065
       5470.1412       1.0331642
       5470.8541       1.0225454
       5471.5670      0.99448072
       5472.2799      0.96915587
       5472.9929       1.0217337
       5473.7058       1.1788698
       5474.4187       1.0589485
       5475.1316       1.0168327
       5475.8445       1.0403474
       5476.5574       1.0746207
       5477.2703       1.1580886
       5477.9832       1.0045136
       5478.6961       1.0348343
       5479.4090       1.0532319
       5480.1219      0.97915686
       5480.8348       1.0243525
       5481.5477       1.0455474
       5482.2607       1.0602303
       5482.9736       1.0335235
       5483.6865      0.95710952
       5484.3994      0.97867487
       5485.1123       1.0354874
       5485.8252      0.95609515
       5486.5381       1.0973472
       5487.2510       1.0618651
       5487.9639       1.0347560
       5488.6768      0.98559961
       5489.3897      0.97364003
       5490.1026       1.0435915
       5490.8155       1.1200803
       5491.5285       1.1044729
       5492.2414      0.99259943
       5492.9543      0.96100300
       5493.6672      0.99813232
       5494.3801       1.0394462
       5495.0930       1.0435104
       5495.8059       1.0844061
       5496.5188       1.0934220
       5497.2317       1.1117406
       5497.9446      0.99418335
       5498.6575      0.98991446
       5499.3704       1.0102459
       5500.0833       1.0605189
       5500.7962       1.0453152
       5501.5092       1.1092617
       5502.2221       1.2972174
       5502.9350       1.2661859
       5503.6479       1.2109212
       5504.3608       1.1937238
       5505.0737       1.0693863
       5505.7866       1.0648628
       5506.4995       1.0757149
       5507.2124       1.0416311
       5507.9253       1.0824959
       5508.6382       1.0406160
       5509.3511      0.97582061
       5510.0640      0.77484773
       5510.7770      0.98201769
       5511.4899      0.99343146
       5512.2028      0.87391526
       5512.9157      0.87840467
       5513.6286      0.94853240
       5514.3415       1.0371456
       5515.0544      0.96850350
       5515.7673      0.93363092
       5516.4802       1.0707079
       5517.1931       1.0708748
       5517.9060       1.0501716
       5518.6189       1.1136965
       5519.3318       1.0812787
       5520.0448       1.0495136
       5520.7577       1.0694591
       5521.4706       1.0987383
       5522.1835       1.0052264
       5522.8964       1.0450578
       5523.6093       1.0726533
       5524.3222       1.0403735
       5525.0351       1.0644915
       5525.7480       1.0630066
       5526.4609       1.1932662
       5527.1738       1.1988813
       5527.8867       1.0925334
       5528.5996       1.0890133
       5529.3126       1.1150663
       5530.0255      0.95462692
       5530.7384       1.1539070
       5531.4513       1.1596208
       5532.1642       1.1626719
       5532.8771      0.85817277
       5533.5900      0.87318286
       5534.3029      0.98964015
       5535.0158      0.91459906
       5535.7287       1.0530566
       5536.4416      0.94697449
       5537.1545       1.1021864
       5537.8674      0.98268771
       5538.5804       1.0028129
       5539.2933       1.0089282
       5540.0062      0.97587879
       5540.7191       1.0418807
       5541.4320      0.98732195
       5542.1449      0.94150538
       5542.8578      0.96319410
       5543.5707       1.0523750
       5544.2836       1.0808531
       5544.9965       1.0088614
       5545.7094       1.0999809
       5546.4223       1.0602209
       5547.1352      0.94805319
       5547.8482      0.93074031
       5548.5611      0.87212454
       5549.2740      0.86838357
       5549.9869      0.92096304
       5550.6998       1.0674055
       5551.4127       1.1922910
       5552.1256       1.1304902
       5552.8385      0.99210177
       5553.5514      0.98929350
       5554.2643       1.1319978
       5554.9772       1.2551270
       5555.6901       1.0336504
       5556.4030       1.1913016
       5557.1160       1.0143740
       5557.8289      0.90992435
       5558.5418       1.0042017
       5559.2547       1.0872669
       5559.9676       1.1006915
       5560.6805       1.0953723
       5561.3934       1.1233776
       5562.1063       1.1129537
       5562.8192       1.0621037
       5563.5321       1.0950208
       5564.2450       1.0150126
       5564.9579       1.0980273
       5565.6708       1.0913933
       5566.3837       1.0889261
       5567.0967       1.0524004
       5567.8096       1.1218977
       5568.5225       1.0108541
       5569.2354       1.0926317
       5569.9483       1.0264902
       5570.6612       1.0387062
       5571.3741       1.0122281
       5572.0870       1.0251184
       5572.7999       1.0922923
       5573.5128       1.1838891
       5574.2257       1.0198544
       5574.9386      0.91511737
       5575.6515       1.0864150
       5576.3645       1.0258232
       5577.0774       1.0858068
       5577.7903       1.0702853
       5578.5032       1.2348114
       5579.2161       1.1612269
       5579.9290       1.0751294
       5580.6419      0.97749916
       5581.3548       1.0244216
       5582.0677       1.0161922
       5582.7806       1.1387309
       5583.4935       1.2337597
       5584.2064       1.1618065
       5584.9193      0.95772605
       5585.6323       1.1193916
       5586.3452       1.3078016
       5587.0581      0.54390912
       5587.7710     0.044159872
       5588.4839     0.090184331
       5589.1968       1.2773600
       5589.9097       1.0697219
       5590.6226       1.5648323
       5591.3355       1.0846622
       5592.0484       1.0827514
       5592.7613       1.0114322
       5593.4742      0.85107331
       5594.1871      0.95240726
       5594.9001       1.1192335
       5595.6130      0.98777537
       5596.3259      0.96462790
       5597.0388       1.0071092
       5597.7517       1.0627242
       5598.4646       1.0313438
       5599.1775       1.0943233
       5599.8904       1.0240096
       5600.6033       1.0800877
       5601.3162      0.98727399
       5602.0291       1.0304472
       5602.7420       1.0679113
       5603.4549       1.0782040
       5604.1679      0.97896407
       5604.8808      0.94070738
       5605.5937      0.90574084
       5606.3066      0.94031940
       5607.0195       1.0499661
       5607.7324       1.0832170
       5608.4453      0.93260879
       5609.1582       1.1133394
       5609.8711       1.0499241
       5610.5840       1.0713665
       5611.2969       1.0603640
       5612.0098       1.0793741
       5612.7227       1.2036791
       5613.4357       1.2111839
       5614.1486      0.99269623
       5614.8615      0.91073091
       5615.5744       1.0750928
       5616.2873       1.1963456
       5617.0002       1.0062885
       5617.7131      0.97577022
       5618.4260       1.0770331
       5619.1389       1.0498315
       5619.8518       1.1627950
       5620.5647       1.1715922
       5621.2776       1.1065807
       5621.9905       1.0287298
       5622.7035      0.97691583
       5623.4164      0.89404641
       5624.1293      0.94361859
       5624.8422       1.0512593
       5625.5551       1.0182667
       5626.2680       1.0036911
       5626.9809      0.90641951
       5627.6938      0.94003119
       5628.4067      0.95125128
       5629.1196      0.97492419
       5629.8325      0.96308550
       5630.5454      0.95638954
       5631.2583      0.83568271
       5631.9712      0.96421316
       5632.6842      0.98815192
       5633.3971       1.0339814
       5634.1100       1.0642684
       5634.8229      0.98223048
       5635.5358       1.0275748
       5636.2487      0.98386438
       5636.9616       1.0977918
       5637.6745       1.0183662
       5638.3874      0.92772888
       5639.1003      0.98743567
       5639.8132       1.0092864
       5640.5261       1.0806155
       5641.2390      0.97708209
       5641.9520       1.1162169
       5642.6649      0.83689157
       5643.3778      0.83071096
       5644.0907       1.0814903
       5644.8036       1.0804794
       5645.5165       1.0604150
       5646.2294       1.0053028
       5646.9423       1.0818324
       5647.6552       1.2242690
       5648.3681       1.1578584
       5649.0810       1.0087715
       5649.7939       1.0945118
       5650.5068       1.0661486
       5651.2198       1.0425674
       5651.9327      0.99865985
       5652.6456       1.0363391
       5653.3585       1.1159183
       5654.0714       1.0260078
       5654.7843       1.0622919
       5655.4972       1.0114933
       5656.2101      0.96879029
       5656.9230      0.92270624
       5657.6359      0.89470898
       5658.3488      0.94466381
       5659.0617       1.0462619
       5659.7746      0.98864373
       5660.4876      0.95081535
       5661.2005      0.99688310
       5661.9134       1.0607579
       5662.6263       1.0842717
       5663.3392      0.98652400
       5664.0521       1.0677304
       5664.7650       1.1234457
       5665.4779       1.0412132
       5666.1908       1.0651180
       5666.9037      0.97194272
       5667.6166       1.0494125
       5668.3295       1.0784413
       5669.0424      0.96588053
       5669.7554      0.97042523
       5670.4683       1.0799743
       5671.1812       1.0823213
       5671.8941      0.98748478
       5672.6070       1.0222978
       5673.3199      0.97398549
       5674.0328      0.94271981
       5674.7457      0.96936498
       5675.4586       1.0094879
       5676.1715      0.97789038
       5676.8844      0.96320031
       5677.5973       1.0807479
       5678.3102       1.0584725
       5679.0232       1.0789757
       5679.7361       1.0265690
       5680.4490      0.97975022
       5681.1619       1.0789218
       5681.8748      0.96652968
       5682.5877       1.0033854
       5683.3006       1.0218608
       5684.0135       1.0865369
       5684.7264       1.1435375
       5685.4393       1.0204936
       5686.1522       1.0504365
       5686.8651       1.0390239
       5687.5780       1.1552351
       5688.2910       1.0976658
       5689.0039       1.1073746
       5689.7168       1.1333165
       5690.4297       1.0257989
       5691.1426      0.90942569
       5691.8555       1.0158826
       5692.5684      0.95266687
       5693.2813       1.0867502
       5693.9942       1.1001056
       5694.7071      0.96200255
       5695.4200       1.0713981
       5696.1329       1.0573336
       5696.8458       1.1361028
       5697.5587       1.0458947
       5698.2717       1.0063888
       5698.9846       1.0426021
       5699.6975       1.1107588
       5700.4104       1.0801619
       5701.1233      0.95508988
       5701.8362       1.0399310
       5702.5491      0.96109906
       5703.2620       1.0320932
       5703.9749      0.97442139
       5704.6878       1.0448717
       5705.4007       1.1474113
       5706.1136       1.0416065
       5706.8265       1.0204380
       5707.5395       1.1287981
       5708.2524       1.0858392
       5708.9653       1.0496790
       5709.6782       1.0816952
       5710.3911       1.0283995
       5711.1040       1.0243860
       5711.8169       1.0296019
       5712.5298       1.0265769
       5713.2427       1.0649279
       5713.9556      0.85770029
       5714.6685      0.94165371
       5715.3814       1.0380927
       5716.0943       1.0461326
       5716.8073       1.0020942
       5717.5202       1.0086811
       5718.2331       1.0381796
       5718.9460       1.0617732
       5719.6589       1.0123787
       5720.3718       1.0466712
       5721.0847       1.1061990
       5721.7976       1.0641281
       5722.5105      0.96976711
       5723.2234       1.0311067
       5723.9363      0.99868727
       5724.6492       1.0252394
       5725.3621       1.1278727
       5726.0751       1.1168217
       5726.7880       1.1623221
       5727.5009       1.0703533
       5728.2138      0.97432194
       5728.9267       1.0390803
       5729.6396       1.0770904
       5730.3525       1.0966120
       5731.0654       1.0842241
       5731.7783       1.0786169
       5732.4912       1.0708731
       5733.2041       1.1972123
       5733.9170       1.0953183
       5734.6299       1.0537428
       5735.3429       1.0196398
       5736.0558       1.0933606
       5736.7687       1.0502276
       5737.4816       1.0629114
       5738.1945      0.99832525
       5738.9074      0.86514471
       5739.6203      0.97764874
       5740.3332       1.1045634
       5741.0461       1.1670996
       5741.7590       1.0005556
       5742.4719      0.99467385
       5743.1848      0.95446460
       5743.8977      0.99032204
       5744.6107       1.0749425
       5745.3236       1.1399430
       5746.0365       1.0567297
       5746.7494      0.99014672
       5747.4623       1.0213113
       5748.1752       1.0471511
       5748.8881       1.0830627
       5749.6010       1.0434008
       5750.3139       1.0921517
       5751.0268       1.0733291
       5751.7397       1.1298511
       5752.4526       1.0935724
       5753.1655      0.96387723
       5753.8785      0.86513938
       5754.5914      0.96744073
       5755.3043       1.0308396
       5756.0172       1.0930870
       5756.7301       1.0029601
       5757.4430       1.0766149
       5758.1559      0.89143263
       5758.8688      0.94094790
       5759.5817       1.0361941
       5760.2946       1.1832181
       5761.0075       1.0629058
       5761.7204       1.0878820
       5762.4333       1.1876482
       5763.1462       1.0273120
       5763.8592       1.0757155
       5764.5721       1.2563829
       5765.2850       1.2414428
       5765.9979       1.0763538
       5766.7108       1.0526657
       5767.4237       1.0952486
       5768.1366       1.0185346
       5768.8495       1.1681516
       5769.5624       1.0269697
       5770.2753      0.93245518
       5770.9882       1.1811868
       5771.7011      0.86947782
       5772.4140       1.0945441
       5773.1270       1.2014290
       5773.8399       1.1108596
       5774.5528       1.1432959
       5775.2657       1.0647547
       5775.9786       1.0818616
       5776.6915       1.2432561
       5777.4044      0.99241497
       5778.1173       1.1175746
       5778.8302       1.0809164
       5779.5431       1.1821672
       5780.2560       1.0706992
       5780.9689       1.0443185
       5781.6818      0.99390126
       5782.3948      0.99937786
       5783.1077       1.1024621
       5783.8206      0.99856467
       5784.5335       1.1585301
       5785.2464       1.0603114
       5785.9593       1.0236870
       5786.6722      0.96536729
       5787.3851       1.0432486
       5788.0980      0.99221843
       5788.8109      0.91208512
       5789.5238      0.95456636
       5790.2367       1.0017399
       5790.9496       1.0764280
       5791.6626      0.89137647
       5792.3755       1.0098333
       5793.0884       1.1350056
       5793.8013       1.1419551
       5794.5142       1.0299636
       5795.2271       1.0371923
       5795.9400       1.1167005
       5796.6529      0.99164552
       5797.3658       1.0927386
       5798.0787       1.1561107
       5798.7916       1.1570486
       5799.5045       1.0161516
       5800.2174       1.0831167
       5800.9304       1.0591734
       5801.6433       1.0509559
       5802.3562      0.91660093
       5803.0691       1.0924509
       5803.7820       1.1526831
       5804.4949       1.1206273
       5805.2078       1.0676976
       5805.9207       1.1596694
       5806.6336       1.1040656
       5807.3465       1.0965758
       5808.0594       1.1522616
       5808.7723       1.0982843
       5809.4852       1.1105258
       5810.1982       1.0776259
       5810.9111       1.0154692
       5811.6240       1.1786670
       5812.3369       1.1369917
       5813.0498       1.1159794
       5813.7627       1.0296772
       5814.4756       1.1659409
       5815.1885       1.0545055
       5815.9014       1.1725958
       5816.6143       1.0972581
       5817.3272       1.1535085
       5818.0401       1.1430778
       5818.7530       1.1030690
       5819.4660       1.1605490
       5820.1789       1.2131561
       5820.8918       1.1589569
       5821.6047       1.2434325
       5822.3176       1.2789818
       5823.0305       1.2599376
       5823.7434       1.4257554
       5824.4563       1.1286241
       5825.1692       1.0229565
       5825.8821       1.0276066
       5826.5950       1.1055739
       5827.3079       1.1780133
       5828.0208       1.2218411
       5828.7337       1.1489083
       5829.4467       1.1831335
       5830.1596       1.1577545
       5830.8725       1.1492505
       5831.5854       1.0501518
       5832.2983       1.1120125
       5833.0112       1.1146823
       5833.7241       1.1137012
       5834.4370       1.0464920
       5835.1499       1.2182961
       5835.8628       1.2925319
       5836.5757       1.1446940
       5837.2886       1.1782500
       5838.0015       1.1256706
       5838.7145       1.1940522
       5839.4274       1.2347322
       5840.1403       1.1971144
       5840.8532       1.0558939
       5841.5661       1.0103869
       5842.2790       1.0975657
       5842.9919       1.1429704
       5843.7048      0.94555836
       5844.4177       1.1295684
       5845.1306       1.1720969
       5845.8435       1.1974988
       5846.5564       1.3021350
       5847.2693       1.2026348
       5847.9823       1.1561198
       5848.6952       1.1735329
       5849.4081       1.0867403
       5850.1210       1.0880587
       5850.8339       1.1939187
       5851.5468       1.2477850
       5852.2597       1.2167475
       5852.9726       1.1367851
       5853.6855       1.2883429
       5854.3984       1.1553287
       5855.1113       1.1010784
       5855.8242       1.1497240
       5856.5371       1.1931408
       5857.2501       1.1796292
       5857.9630       1.0184845
       5858.6759       1.2253753
       5859.3888       1.3471145
       5860.1017       1.0715415
       5860.8146       1.2728408
       5861.5275       1.2101830
       5862.2404       1.1181857
       5862.9533       1.1203003
       5863.6662       1.3304692
       5864.3791       1.2801913
       5865.0920       1.1671376
       5865.8049       1.0692938
       5866.5179       1.1795233
       5867.2308       1.1956803
       5867.9437       1.1322155
       5868.6566       1.1025462
       5869.3695       1.1184835
       5870.0824       1.2226762
       5870.7953       1.1802785
       5871.5082       1.1525839
       5872.2211       1.0962996
       5872.9340       1.2712669
       5873.6469       1.2083049
       5874.3598       1.1187234
       5875.0727       1.2217865
       5875.7857       1.1036644
       5876.4986       1.2155921
       5877.2115       1.1598367
       5877.9244       1.2677943
       5878.6373       1.1271352
       5879.3502       1.1888620
       5880.0631       1.3230253
       5880.7760       1.2879485
       5881.4889       1.2741814
       5882.2018       1.1851356
       5882.9147       1.2894033
       5883.6276       1.2616080
       5884.3405       1.2284002
       5885.0535       1.2417519
       5885.7664       1.2270065
       5886.4793       1.2183555
       5887.1922       1.1470431
       5887.9051       1.0208493
       5888.6180      0.96220305
       5889.3309      0.95012606
       5890.0438      0.93107864
       5890.7567      0.97109371
       5891.4696      0.92715417
       5892.1825      0.87095474
       5892.8954      0.93377087
       5893.6083      0.95344860
       5894.3212      0.83905043
       5895.0342      0.87545972
       5895.7471      0.85716965
       5896.4600      0.81930895
       5897.1729      0.76947604
       5897.8858      0.84132037
       5898.5987      0.78652801
       5899.3116      0.76546315
       5900.0245      0.83888813
       5900.7374      0.89124136
       5901.4503      0.94235606
       5902.1632      0.85490938
       5902.8761      0.97660924
       5903.5890       1.0296718
       5904.3020      0.88066957
       5905.0149      0.95999772
       5905.7278      0.94897600
       5906.4407      0.96733370
       5907.1536      0.96114481
       5907.8665       1.0075083
       5908.5794       1.0446947
       5909.2923      0.94797601
       5910.0052      0.97667015
       5910.7181      0.98638839
       5911.4310       1.0266635
       5912.1439       1.0904622
       5912.8568       1.0617452
       5913.5698       1.0746992
       5914.2827       1.1760531
       5914.9956       1.1511825
       5915.7085       1.2118149
       5916.4214       1.1844608
       5917.1343       1.1309066
       5917.8472       1.0245999
       5918.5601       1.1566184
       5919.2730       1.1761164
       5919.9859       1.1163100
       5920.6988       1.1497014
       5921.4117       1.1399215
       5922.1246       1.1516573
       5922.8376       1.1668420
       5923.5505       1.2037973
       5924.2634       1.0420657
       5924.9763       1.0658243
       5925.6892       1.0572652
       5926.4021       1.1854063
       5927.1150       1.0345158
       5927.8279       1.1855272
       5928.5408       1.1969529
       5929.2537       1.1035062
       5929.9666       1.1035100
       5930.6795       1.0819933
       5931.3924       1.2112314
       5932.1054       1.1026115
       5932.8183       1.2068483
       5933.5312       1.2516305
       5934.2441       1.1371381
       5934.9570       1.2376224
       5935.6699       1.2684738
       5936.3828       1.1964410
       5937.0957       1.2085444
       5937.8086       1.2849452
       5938.5215       1.1806478
       5939.2344       1.2129717
       5939.9473       1.1250198
       5940.6602       1.1452058
       5941.3732      0.99370892
       5942.0861       1.1154196
       5942.7990       1.1004147
       5943.5119       1.1332441
       5944.2248       1.1553927
       5944.9377       1.1337857
       5945.6506       1.2028929
       5946.3635       1.2040038
       5947.0764       1.0418008
       5947.7893       1.1628798
       5948.5022       1.2504705
       5949.2151       1.0767524
       5949.9280       1.0524792
       5950.6410       1.2277956
       5951.3539       1.1377453
       5952.0668       1.1885139
       5952.7797       1.1517678
       5953.4926       1.1790124
       5954.2055       1.1197375
       5954.9184       1.0249254
       5955.6313       1.1241138
       5956.3442       1.2067650
       5957.0571       1.1592629
       5957.7700       1.1006878
       5958.4829       1.0740507
       5959.1958       1.0653664
       5959.9087       1.0474535
       5960.6217      0.97928482
       5961.3346      0.97069884
       5962.0475       1.0277914
       5962.7604       1.1420435
       5963.4733       1.1214992
       5964.1862       1.1375365
       5964.8991       1.1503787
       5965.6120       1.0982330
       5966.3249      0.99102318
       5967.0378       1.0118110
       5967.7507       1.2559003
       5968.4636       1.2339507
       5969.1765       1.0501437
       5969.8895       1.0553354
       5970.6024       1.0378076
       5971.3153       1.1097415
       5972.0282       1.1754269
       5972.7411       1.1284668
       5973.4540       1.1070408
       5974.1669       1.1940737
       5974.8798       1.1563643
       5975.5927       1.0970496
       5976.3056       1.0291565
       5977.0185       1.1633552
       5977.7314       1.2153335
       5978.4443      0.99761292
       5979.1573       1.1368177
       5979.8702       1.1969840
       5980.5831       1.1467659
       5981.2960       1.0969145
       5982.0089       1.2470552
       5982.7218       1.2929547
       5983.4347       1.2413659
       5984.1476       1.0564988
       5984.8605       1.1695567
       5985.5734       1.1024148
       5986.2863       1.1816177
       5986.9992       1.2324432
       5987.7121       1.2994212
       5988.4251       1.1982006
       5989.1380       1.1935158
       5989.8509       1.0143003
       5990.5638       1.1102062
       5991.2767       1.1758539
       5991.9896      0.98520679
       5992.7025      0.99319086
       5993.4154       1.0679296
       5994.1283       1.0662286
       5994.8412       1.1546234
       5995.5541       1.1485164
       5996.2670       1.2437077
       5996.9799       1.1507711
       5997.6929       1.1628656
       5998.4058       1.1352765
       5999.1187       1.1468321
       5999.8316       1.1672011
       6000.5445       1.2133722
       6001.2574       1.1665882
       6001.9703       1.1553230
       6002.6832       1.2039155
       6003.3961       1.1054609
       6004.1090       1.0666635
       6004.8219       1.0925925
       6005.5348       1.0265080
       6006.2477       1.1497619
       6006.9607       1.0905827
       6007.6736       1.0344649
       6008.3865       1.0523959
       6009.0994       1.0470744
       6009.8123       1.1761508
       6010.5252       1.1421924
       6011.2381       1.1326948
       6011.9510       1.2106879
       6012.6639       1.1827591
       6013.3768       1.1736843
       6014.0897       1.1733937
       6014.8026       1.0594780
       6015.5155       1.0750601
       6016.2285       1.0453954
       6016.9414       1.1210362
       6017.6543       1.0824213
       6018.3672       1.0483305
       6019.0801       1.1100779
       6019.7930       1.0997699
       6020.5059       1.0111784
       6021.2188       1.0143872
       6021.9317       1.0701834
       6022.6446       1.0025416
       6023.3575       1.0364009
       6024.0704       1.1150411
       6024.7833       1.0918703
       6025.4962       1.1190413
       6026.2092       1.2295311
       6026.9221       1.1458660
       6027.6350       1.1228479
       6028.3479       1.1345393
       6029.0608       1.0029688
       6029.7737       1.2773243
       6030.4866       1.2038068
       6031.1995       1.3008496
       6031.9124       1.3125765
       6032.6253       1.1278748
       6033.3382       1.1200343
       6034.0511       1.0853025
       6034.7640       1.0607102
       6035.4770       1.0591777
       6036.1899       1.2015595
       6036.9028       1.1084033
       6037.6157       1.2079220
       6038.3286       1.1776645
       6039.0415       1.1287700
       6039.7544       1.0861220
       6040.4673       1.0010999
       6041.1802       1.1406192
       6041.8931       1.1237247
       6042.6060       1.1201711
       6043.3189      0.96573216
       6044.0318       1.1099779
       6044.7448       1.1645540
       6045.4577       1.2023646
       6046.1706       1.1075606
       6046.8835       1.0723235
       6047.5964       1.2688164
       6048.3093       1.2959223
       6049.0222       1.2398053
       6049.7351       1.2262132
       6050.4480       1.1071870
       6051.1609       1.2119336
       6051.8738       1.2142957
       6052.5867       1.1205010
       6053.2996       1.1345915
       6054.0126       1.1984226
       6054.7255      0.92227817
       6055.4384       1.2386738
       6056.1513       1.0700740
       6056.8642       1.0186178
       6057.5771       1.3126469
       6058.2900       1.4147589
       6059.0029       1.3225125
       6059.7158       1.4481047
       6060.4287       1.1613531
       6061.1416       1.2023827
       6061.8545       1.1258552
       6062.5674       1.2614493
       6063.2804       1.3454760
       6063.9933       1.1771082
       6064.7062      0.85379705
       6065.4191       1.1361110
       6066.1320       1.0648895
       6066.8449       1.0015598
       6067.5578       1.0901252
       6068.2707       1.0632951
       6068.9836       1.0612313
       6069.6965       1.2561577
       6070.4094       1.1407295
       6071.1223       1.2098848
       6071.8352       1.1655430
       6072.5482       1.0588856
       6073.2611       1.0085329
       6073.9740       1.0903369
       6074.6869       1.1699399
       6075.3998       1.1613949
       6076.1127       1.1785476
       6076.8256       1.2115312
       6077.5385       1.1209225
       6078.2514       1.2646087
       6078.9643       1.1495410
       6079.6772       1.1555083
       6080.3901       1.2546254
       6081.1030       1.2381575
       6081.8160       1.1908065
       6082.5289       1.1506654
       6083.2418       1.1813157
       6083.9547       1.1487555
       6084.6676       1.1731095
       6085.3805       1.1874061
       6086.0934       1.3650663
       6086.8063       1.2243312
       6087.5192      0.94487607
       6088.2321       1.3882521
       6088.9450       1.1989128
       6089.6579      0.93070212
       6090.3708       1.2217052
       6091.0837      0.94370931
       6091.7967       1.1321829
       6092.5096       1.0463119
       6093.2225      0.83536913
       6093.9354      0.86735762
       6094.6483      0.76704536
       6095.3612      0.63680036
       6096.0741      0.75740383
       6096.7870      0.80902573
       6097.4999      0.74040173
       6098.2128      0.95664837
       6098.9257      0.77390067
       6099.6386      0.94614284
       6100.3515       1.0336306
       6101.0645       1.0045438
       6101.7774      0.99015588
       6102.4903       1.0846446
       6103.2032      0.98380618
       6103.9161       1.0889786
       6104.6290       1.1194551
       6105.3419      0.97920003
       6106.0548       1.1849048
       6106.7677       1.1293318
       6107.4806       1.2232599
       6108.1935       1.0246122
       6108.9064      0.93505630
       6109.6193      0.96727855
       6110.3323       1.0118422
       6111.0452      0.79070195
       6111.7581       1.1079110
       6112.4710      0.85904365
       6113.1839       1.0138832
       6113.8968       1.1446882
       6114.6097       1.0230054
       6115.3226       1.0767923
       6116.0355       1.0152648
       6116.7484       1.0906192
       6117.4613       1.0033027
       6118.1742      0.92532607
       6118.8871       1.0001097
       6119.6001       1.0235658
       6120.3130      0.96395061
       6121.0259       1.0630825
       6121.7388      0.94355020
       6122.4517       1.2509540
       6123.1646      0.98605965
       6123.8775       1.0139985
       6124.5904       1.1800673
       6125.3033       1.1038929
       6126.0162       1.1859833
       6126.7291      0.96264578
       6127.4420      0.97957370
       6128.1549      0.96466439
       6128.8679       1.1180541
       6129.5808       1.1414867
       6130.2937       1.0220133
       6131.0066       1.0967024
       6131.7195       1.0919817
       6132.4324       1.0714316
       6133.1453       1.0304336
       6133.8582      0.95651007
       6134.5711       1.2183838
       6135.2840       1.1612918
       6135.9969       1.1181550
       6136.7098       1.1082194
       6137.4227       1.0910382
       6138.1357      0.95412170
       6138.8486       1.2363859
       6139.5615       1.2234735
       6140.2744       1.0943467
       6140.9873       1.1498782
       6141.7002      0.86527692
       6142.4131       1.1580676
       6143.1260       1.2046126
       6143.8389      0.88548637
       6144.5518       1.1448178
       6145.2647       1.1463104
       6145.9776       1.3634335
       6146.6905       1.2085568
       6147.4035       1.1562711
       6148.1164       1.1165319
       6148.8293       1.2529911
       6149.5422       1.1074260
       6150.2551       1.2783591
       6150.9680       1.0325071
       6151.6809       1.1666541
       6152.3938       1.0565768
       6153.1067       1.0536168
       6153.8196       1.0849666
       6154.5325       1.0968637
       6155.2454      0.99198936
       6155.9583       1.1070871
       6156.6712      0.98175875
       6157.3842       1.1664636
       6158.0971      0.98355773
       6158.8100      0.93331873
       6159.5229      0.95717150
       6160.2358       1.1559227
       6160.9487       1.0713771
       6161.6616       1.1215956
       6162.3745      0.98089268
       6163.0874       1.1114297
       6163.8003       1.0530633
       6164.5132      0.96896542
       6165.2261       1.2457903
       6165.9390       1.0373379
       6166.6520       1.0510758
       6167.3649       1.0806050
       6168.0778       1.2597299
       6168.7907       1.0246312
       6169.5036      0.95313633
       6170.2165       1.0761053
       6170.9294      0.95637404
       6171.6423      0.98547660
       6172.3552      0.99261022
       6173.0681       1.1049685
       6173.7810       1.1842985
       6174.4939       1.2267193
       6175.2068       1.1337621
       6175.9198      0.87553829
       6176.6327       1.0322389
       6177.3456       1.1127570
       6178.0585       1.0168346
       6178.7714       1.1302309
       6179.4843       1.1472415
       6180.1972       1.0591508
       6180.9101       1.1668077
       6181.6230       1.1118668
       6182.3359       1.2119460
       6183.0488       1.1704935
       6183.7617       1.0962363
       6184.4746       1.1903704
       6185.1876       1.0393509
       6185.9005       1.0795291
       6186.6134       1.3478281
       6187.3263       1.2390419
       6188.0392       1.1774348
       6188.7521       1.0934609
       6189.4650       1.2355992
       6190.1779      0.95478470
       6190.8908       1.1317196
       6191.6037       1.0241389
       6192.3166       1.1873288
       6193.0295       1.2437504
       6193.7424       1.1318100
       6194.4554       1.0038808
       6195.1683       1.2079024
       6195.8812       1.0263723
       6196.5941       1.0410554
       6197.3070       1.2531176
       6198.0199       1.2179428
       6198.7328       1.0635760
       6199.4457       1.2520361
       6200.1586       1.2378530
       6200.8715       1.2372264
       6201.5844       1.2280445
       6202.2973       1.1292905
       6203.0102       1.2287812
       6203.7232       1.2395509
       6204.4361       1.2751143
       6205.1490       1.3777288
       6205.8619       1.2028123
       6206.5748       1.2427367
       6207.2877      0.98067424
       6208.0006       1.1569977
       6208.7135       1.1015315
       6209.4264       1.1506783
       6210.1393       1.3538396
       6210.8522       1.2197066
       6211.5651       1.2205995
       6212.2780       1.0977697
       6212.9909       1.0452310
       6213.7039       1.0446747
       6214.4168       1.0413899
       6215.1297       1.0809617
       6215.8426       1.1900708
       6216.5555       1.3056259
       6217.2684       1.0849682
       6217.9813       1.1097546
       6218.6942       1.1058006
       6219.4071       1.0471267
       6220.1200       1.2015163
       6220.8329       1.1467338
       6221.5458       1.1150892
       6222.2587       1.3431151
       6222.9717       1.3272181
       6223.6846       1.2316543
       6224.3975       1.1971374
       6225.1104       1.0241908
       6225.8233       1.0142368
       6226.5362       1.0335810
       6227.2491       1.0586583
       6227.9620       1.0822890
       6228.6749      0.97931488
       6229.3878       1.1930731
       6230.1007       1.0516819
       6230.8136       1.0395386
       6231.5265       1.0258891
       6232.2395       1.0787617
       6232.9524       1.1231697
       6233.6653       1.1023796
       6234.3782       1.1974498
       6235.0911       1.0569594
       6235.8040       1.0649099
       6236.5169       1.1362055
       6237.2298       1.0973118
       6237.9427       1.1384140
       6238.6556       1.0724842
       6239.3685       1.0642283
       6240.0814       1.0248151
       6240.7943       1.0991293
       6241.5073       1.3287882
       6242.2202       1.1732084
       6242.9331       1.1179200
       6243.6460       1.0844635
       6244.3589       1.1288442
       6245.0718       1.0961680
       6245.7847       1.1023934
       6246.4976       1.0640309
       6247.2105       1.1107263
       6247.9234       1.0544648
       6248.6363       1.2085830
       6249.3492       1.0943735
       6250.0621       1.1075713
       6250.7751      0.94558905
       6251.4880      0.89100116
       6252.2009      0.96551813
       6252.9138       1.1475656
       6253.6267       1.1261011
       6254.3396       1.3001520
       6255.0525       1.0647346
       6255.7654       1.1061702
       6256.4783       1.1130745
       6257.1912       1.2232394
       6257.9041       1.1128132
       6258.6170       1.1992393
       6259.3299       1.1927434
       6260.0429       1.2171934
       6260.7558      0.99813799
       6261.4687       1.0914774
       6262.1816       1.0493905
       6262.8945       1.1889169
       6263.6074       1.1359493
       6264.3203       1.0811721
       6265.0332       1.1533796
       6265.7461       1.0486517
       6266.4590       1.0074731
       6267.1719       1.1464424
       6267.8848       1.1179447
       6268.5977       1.0855949
       6269.3107       1.1330134
       6270.0236       1.2210068
       6270.7365       1.3625419
       6271.4494       1.2655594
       6272.1623       1.1223581
       6272.8752       1.1191473
       6273.5881       1.1581912
       6274.3010       1.0822550
       6275.0139       1.2441454
       6275.7268       1.1643260
       6276.4397       1.2785016
       6277.1526       1.2241485
       6277.8655       1.2526317
       6278.5784       1.2858166
       6279.2914       1.1177587
       6280.0043       1.2305500
       6280.7172       1.0932574
       6281.4301       1.2388716
       6282.1430       1.1930905
       6282.8559       1.1880297
       6283.5688       1.2380014
       6284.2817       1.1317216
       6284.9946       1.1857195
       6285.7075       1.1503559
       6286.4204       1.0341398
       6287.1333       1.0505179
       6287.8462       1.1556062
       6288.5592       1.1303515
       6289.2721       1.1863038
       6289.9850       1.0408318
       6290.6979       1.0397156
       6291.4108       1.1005308
       6292.1237       1.2265653
       6292.8366       1.1159943
       6293.5495       1.2587084
       6294.2624       1.1907497
       6294.9753       1.3018179
       6295.6882       1.1795526
       6296.4011       1.3237752
       6297.1140       1.3602292
       6297.8270       1.2809978
       6298.5399       1.2132691
       6299.2528       1.1753117
       6299.9657       1.1263343
       6300.6786       1.2210787
       6301.3915       1.1867445
       6302.1044       1.2667967
       6302.8173       1.3039478
       6303.5302       1.1953999
       6304.2431       1.0595380
       6304.9560       1.1492873
       6305.6689       1.3177307
       6306.3818       1.2607787
       6307.0948       1.2639690
       6307.8077       1.3008180
       6308.5206       1.2427906
       6309.2335       1.1847457
       6309.9464       1.2906071
       6310.6593       1.1207002
       6311.3722       1.2621218
       6312.0851       1.0868974
       6312.7980       1.2038667
       6313.5109       1.1743812
       6314.2238       1.0979393
       6314.9367       1.0302192
       6315.6496       1.1704094
       6316.3626       1.3043402
       6317.0755       1.2504149
       6317.7884       1.2921109
       6318.5013       1.1601749
       6319.2142       1.1987488
       6319.9271       1.2607395
       6320.6400       1.2457245
       6321.3529       1.2191878
       6322.0658       1.2833202
       6322.7787       1.1821716
       6323.4916       1.1786771
       6324.2045       1.1973081
       6324.9174       1.2661133
       6325.6304       1.2981125
       6326.3433       1.1274427
       6327.0562       1.2540779
       6327.7691       1.2608033
       6328.4820       1.1313652
       6329.1949       1.2062367
       6329.9078       1.2041458
       6330.6207       1.2666329
       6331.3336       1.1663644
       6332.0465       1.3140314
       6332.7594       1.2028843
       6333.4723       1.2618710
       6334.1852       1.2042644
       6334.8982       1.2210797
       6335.6111       1.0571239
       6336.3240       1.1945702
       6337.0369       1.2405353
       6337.7498       1.3399175
       6338.4627       1.2313566
       6339.1756       1.3924251
       6339.8885       1.2185963
       6340.6014       1.1848638
       6341.3143       1.1998050
       6342.0272       1.2619636
       6342.7401       1.1181904
       6343.4530       1.2947985
       6344.1659       1.3693062
       6344.8789       1.3087156
       6345.5918      0.99883725
       6346.3047       1.2661304
       6347.0176       1.1874495
       6347.7305       1.2492119
       6348.4434       1.2980129
       6349.1563       1.3951533
       6349.8692       1.0949735
       6350.5821       1.0999531
       6351.2950       1.1040306
       6352.0079       1.1694854
       6352.7208       1.3308560
       6353.4337       1.3105668
       6354.1467       1.2474165
       6354.8596       1.2309479
       6355.5725       1.1353807
       6356.2854       1.1759564
       6356.9983       1.1580388
       6357.7112       1.0970309
       6358.4241       1.2089154
       6359.1370       1.0890411
       6359.8499       1.0269126
       6360.5628       1.1461660
       6361.2757       1.0997383
       6361.9886       1.1227840
       6362.7015       1.0916468
       6363.4145       1.3101838
       6364.1274       1.0625586
       6364.8403       1.0615997
       6365.5532       1.0884310
       6366.2661       1.1969902
       6366.9790       1.2256233
       6367.6919       1.0148538
       6368.4048       1.0637547
       6369.1177       1.1157571
       6369.8306       1.0391462
       6370.5435       1.1276675
       6371.2564       1.1193955
       6371.9693       1.2790347
       6372.6823       1.1632189
       6373.3952       1.0888211
       6374.1081       1.1240333
       6374.8210       1.0767570
       6375.5339       1.0228104
       6376.2468       1.1396592
       6376.9597       1.0572311
       6377.6726       1.0280223
       6378.3855       1.1601361
       6379.0984       1.2478596
       6379.8113       1.0621426
       6380.5242       1.0208795
       6381.2371       1.1049224
       6381.9501       1.0593694
       6382.6630       1.0744045
       6383.3759       1.1667385
       6384.0888       1.0760721
       6384.8017       1.1135192
       6385.5146       1.1328726
       6386.2275       1.1407160
       6386.9404       1.0642228
       6387.6533       1.1726226
       6388.3662      0.95603511
       6389.0791       1.1026082
       6389.7920       1.2580538
       6390.5049       1.0744507
       6391.2179       1.1549777
       6391.9308       1.3830941
       6392.6437       1.2788467
       6393.3566       1.0726472
       6394.0695       1.1779022
       6394.7824       1.2490372
       6395.4953       1.2477424
       6396.2082       1.1180421
       6396.9211       1.1463953
       6397.6340       1.1309060
       6398.3469       1.1471126
       6399.0598       1.3464258
       6399.7727       1.2000824
       6400.4857       1.1409970
       6401.1986       1.1950706
       6401.9115       1.1036870
       6402.6244       1.2206715
       6403.3373       1.1263302
       6404.0502       1.2858134
       6404.7631       1.3309220
       6405.4760       1.2469832
       6406.1889       1.3062001
       6406.9018       1.1659556
       6407.6147       1.2964998
       6408.3276       1.2228584
       6409.0405       1.1744078
       6409.7534       1.3146048
       6410.4664       1.2235769
       6411.1793       1.2412068
       6411.8922       1.2583910
       6412.6051       1.3175332
       6413.3180       1.3628579
       6414.0309       1.1659676
       6414.7438       1.1796175
       6415.4567       1.1618132
       6416.1696       1.2844440
       6416.8825       1.1492800
       6417.5954       1.1205632
       6418.3083       1.1515667
       6419.0212       1.2874574
       6419.7342       1.2227802
       6420.4471       1.4033888
       6421.1600       1.7630861
       6421.8729      0.90497018
       6422.5858       1.3122739
       6423.2987       1.4348905
       6424.0116       1.7780890
       6424.7245      0.68480536
       6425.4374       1.4434401
       6426.1503       1.5077258
       6426.8632       1.0746912
       6427.5761       1.2051592
       6428.2890       1.2509531
       6429.0020       1.0354779
       6429.7149       1.2055244
       6430.4278       1.1766767
       6431.1407       1.3410476
       6431.8536       1.0005238
       6432.5665       1.2031717
       6433.2794       1.1843113
       6433.9923       1.1377602
       6434.7052       1.0162093
       6435.4181       1.4287969
       6436.1310       1.2361304
       6436.8439       1.1770734
       6437.5568       1.0679395
       6438.2698       1.1924796
       6438.9827       1.2162244
       6439.6956       1.1900971
       6440.4085       1.0483412
       6441.1214       1.3176533
       6441.8343       1.4252418
       6442.5472       1.1484453
       6443.2601       1.2095212
       6443.9730       1.2480990
       6444.6859       1.1882818
       6445.3988       1.1482011
       6446.1117       1.2070880
       6446.8246       1.1514779
       6447.5376       1.3091763
       6448.2505       1.2068236
       6448.9634       1.2463297
       6449.6763       1.2035907
       6450.3892       1.2073754
       6451.1021       1.0333549
       6451.8150       1.3410311
       6452.5279       1.4337300
       6453.2408       1.2478194
       6453.9537       1.5458099
       6454.6666       1.4405946
       6455.3795       1.1466312
       6456.0924       1.3775847
       6456.8054      0.84918476
       6457.5183       1.0705384
       6458.2312       1.4018076
       6458.9441       1.4170299
       6459.6570       1.2904219
       6460.3699       1.3972574
       6461.0828       1.2436853
       6461.7957       1.3381335
       6462.5086       1.7147002
       6463.2215       1.4581215
       6463.9344       1.5662652
       6464.6473       1.3153430
       6465.3602       1.2048439
       6466.0732       1.4919638
       6466.7861       1.3466315
       6467.4990       1.1627153
       6468.2119       1.1610508
       6468.9248       1.2561635
       6469.6377       1.2743771
       6470.3506       1.4801855
       6471.0635       1.3652845
       6471.7764       1.2818710
       6472.4893       1.3250866
       6473.2022       1.2570810
       6473.9151       1.2961777
       6474.6280       1.2973540
       6475.3409       1.2495788
       6476.0539       1.4739317
       6476.7668       1.5938626
       6477.4797       1.5562402
       6478.1926       1.3525351
       6478.9055       1.2707969
       6479.6184       1.3397688
       6480.3313       1.1721635
       6481.0442       1.5124425
       6481.7571       1.5936514
       6482.4700       1.2529302
       6483.1829       1.2071072
       6483.8958       1.1104259
       6484.6087       1.3904334
       6485.3217       1.3012299
       6486.0346       1.4758405
       6486.7475       1.2280033
       6487.4604       1.0232057
       6488.1733       2.1044041
       6488.8862       1.9400248
       6489.5991       1.4907631
       6490.3120       1.0365554
       6491.0249      0.61569940
       6491.7378       1.1924886
       6492.4507      0.96112339
       6493.1636       1.4509867
       6493.8765       1.3437522
       6494.5895       1.2708876
       6495.3024       1.3873075
       6496.0153       1.3995438
       6496.7282       1.1288964
       6497.4411       1.2447236
       6498.1540       1.4521897
       6498.8669       1.3314257
       6499.5798       1.3696698
       6500.2927       1.2663185
       6501.0056       1.1237655
       6501.7185       1.6820888
       6502.4314       1.3780254
       6503.1443       1.3469450
       6503.8573       1.1967555
       6504.5702       1.1134181
       6505.2831       1.0165244
       6505.9960       1.0300971
       6506.7089       1.2044755
       6507.4218       1.3786483
       6508.1347       1.4310857
       6508.8476       1.4398508
       6509.5605      0.92535062
       6510.2734      0.69441860
       6510.9863       1.1469149
       6511.6992       1.3469166
       6512.4121       1.4749347
       6513.1251      0.70128381
       6513.8380       1.5814817
       6514.5509       1.5872007
       6515.2638       1.2876306
       6515.9767       1.1337008
       6516.6896       1.4529244
       6517.4025       1.3502739
       6518.1154       1.3715874
       6518.8283       1.3434723
       6519.5412       1.2485658
       6520.2541       1.3369684
       6520.9670       1.3279286
       6521.6799       1.3917475
       6522.3929       1.1892107
       6523.1058       1.3951495
       6523.8187       1.3095618
       6524.5316       1.2757049
       6525.2445       1.6407091
       6525.9574       1.7378326
       6526.6703       1.2708019
       6527.3832       1.3710064
       6528.0961       1.4361842
       6528.8090       1.2822904
       6529.5219       1.3544274
       6530.2348       1.2991108
       6530.9477       1.3695605
       6531.6607       1.4500526
       6532.3736       1.3633568
       6533.0865       1.2769252
       6533.7994       1.3156458
       6534.5123       1.2722431
       6535.2252       1.3128743
       6535.9381       1.5775947
       6536.6510       1.7641440
       6537.3639       1.2628111
       6538.0768       1.3720094
       6538.7897       1.5708662
       6539.5026       1.5113557
       6540.2155       1.2902340
       6540.9284       1.6318330
       6541.6414       1.5274536
       6542.3543       1.3072517
       6543.0672       1.3115358
       6543.7801       1.4603660
       6544.4930       1.3051868
       6545.2059       1.3980930
       6545.9188       1.3872579
       6546.6317       1.4576656
       6547.3446       1.4983293
       6548.0575       1.3283865
       6548.7704       1.4078208
       6549.4833       1.4794633
       6550.1962       1.4453537
       6550.9092       1.3598760
       6551.6221       1.2221481
       6552.3350       1.4635905
       6553.0479       1.3887350
       6553.7608       1.8260800
       6554.4737       1.8883099
       6555.1866       2.4137595
       6555.8995       2.0189569
       6556.6124       1.9496707
       6557.3253       2.0410028
       6558.0382       1.8647304
       6558.7511       1.7730477
       6559.4640       1.6926585
       6560.1770       1.6243737
       6560.8899       1.6409827
       6561.6028       1.3842350
       6562.3157       1.3472163
       6563.0286       1.5259291
       6563.7415       1.2243711
       6564.4544       1.9649287
       6565.1673       1.2347113
       6565.8802       1.9874820
       6566.5931       2.4597798
       6567.3060       3.6073455
       6568.0189       5.5132005
       6568.7318       7.6915469
       6569.4448       8.8958742
       6570.1577       9.4018802
       6570.8706       8.6905333
       6571.5835       7.7068265
       6572.2964       6.4320786
       6573.0093       4.3276533
       6573.7222       3.1251531
       6574.4351       2.4569236
       6575.1480       1.6428894
       6575.8609       1.5785032
       6576.5738       1.5063536
       6577.2867       1.4843351
       6577.9996       1.5509256
       6578.7126       1.3653937
       6579.4255       1.4646325
       6580.1384       1.4983464
       6580.8513       1.3120347
       6581.5642       1.4384710
       6582.2771       1.3768567
       6582.9900       1.3327589
       6583.7029       1.4201444
       6584.4158       1.2587455
       6585.1287       1.5152197
       6585.8416       1.2996109
       6586.5545       1.3678168
       6587.2674       1.4894435
       6587.9804       2.0259370
       6588.6933       2.4965398
       6589.4062       3.0945605
       6590.1191       3.3260026
       6590.8320       3.4080853
       6591.5449       3.4787588
       6592.2578       3.2773638
       6592.9707       2.6540894
       6593.6836       2.5253283
       6594.3965       1.9671216
       6595.1094       1.6773762
       6595.8223       1.4997252
       6596.5352       1.8440405
       6597.2482       1.4113028
       6597.9611       1.3046196
       6598.6740       1.3907793
       6599.3869       1.2676831
       6600.0998       1.4852731
       6600.8127       1.2925064
       6601.5256       1.3491803
       6602.2385       1.2085102
       6602.9514       1.4266370
       6603.6643       1.2133659
       6604.3772       1.4411549
       6605.0901       1.3538788
       6605.8030       1.4915187
       6606.5159       1.4149992
       6607.2289       1.4230601
       6607.9418       1.4577908
       6608.6547       1.5068049
       6609.3676       1.3244324
       6610.0805       1.5393565
       6610.7934       1.4563504
       6611.5063       1.2777990
       6612.2192       1.2674230
       6612.9321       1.4456509
       6613.6450       1.4483522
       6614.3579       1.3744827
       6615.0708       1.4454758
       6615.7837       1.3839090
       6616.4967       1.3160252
       6617.2096       1.4356702
       6617.9225       1.3751278
       6618.6354       1.5096669
       6619.3483       1.3148166
       6620.0612       1.4102241
       6620.7741       1.3898044
       6621.4870       1.5766085
       6622.1999       1.6790757
       6622.9128       1.5406240
       6623.6257       1.9586820
       6624.3386       1.8648238
       6625.0515       1.3918248
       6625.7645       1.4312327
       6626.4774       1.3856791
       6627.1903       1.3123167
       6627.9032       1.4657820
       6628.6161       1.8562107
       6629.3290       1.4640365
       6630.0419       1.5541482
       6630.7548       1.6415840
       6631.4677       1.3038643
       6632.1806       1.3659209
       6632.8935       1.1591664
       6633.6064       1.5386118
       6634.3193       1.2397640
       6635.0323       1.4804127
       6635.7452       1.5963165
       6636.4581       1.7321738
       6637.1710       1.6021076
       6637.8839       2.0441825
       6638.5968       1.9968185
       6639.3097       1.8171673
       6640.0226       2.0152186
       6640.7355       1.8501987
       6641.4484       1.9183444
       6642.1613       1.6762812
       6642.8742       1.5430792
       6643.5871       1.5079713
       6644.3001       1.4987271
       6645.0130       1.4972239
       6645.7259       1.6428934
       6646.4388       1.6503756
       6647.1517       1.5514446
       6647.8646       1.4640619
       6648.5775       1.3556035
       6649.2904       1.3498365
       6650.0033       1.4270988
       6650.7162       1.3928750
       6651.4291       1.5180158
       6652.1420       1.4291707
       6652.8549       1.5618013
       6653.5679       1.6160702
       6654.2808       1.4990329
       6654.9937       1.3332553
       6655.7066       1.4589708
       6656.4195       1.4153812
       6657.1324       1.4964286
       6657.8453       1.3377510
       6658.5582       1.3286560
       6659.2711       1.4897166
       6659.9840       1.2541721
       6660.6969       1.5774683
       6661.4098       1.7119095
       6662.1227       1.5219416
       6662.8357       1.5566747
       6663.5486       1.4599742
       6664.2615       1.3135757
       6664.9744       1.4828226
       6665.6873       1.5526643
       6666.4002       1.4975776
       6667.1131       1.6132249
       6667.8260       1.3192941
       6668.5389       1.3582101
       6669.2518       1.7877274
       6669.9647       1.5565513
       6670.6776       1.6897575
       6671.3905       2.7720007
       6672.1034       2.7328766
       6672.8164       1.9595709
       6673.5293       2.4023858
       6674.2422       2.5022026
       6674.9551       2.3707869
       6675.6680       1.6893658
       6676.3809       1.5713486
       6677.0938       1.4045415
       6677.8067       1.3701264
       6678.5196       1.3880768
       6679.2325       1.4324439
       6679.9454       1.3804646
       6680.6583       1.6945559
       6681.3712       1.5235416
       6682.0842       1.5658876
       6682.7971       1.3970474
       6683.5100       1.8197845
       6684.2229       1.6632785
       6684.9358       1.5042362
       6685.6487       1.6391046
       6686.3616       1.6712499
       6687.0745       1.3844145
       6687.7874       1.5306981
       6688.5003       1.4796317
       6689.2132       1.6439875
       6689.9261       1.7020744
       6690.6390       1.4607253
       6691.3520       1.5892879
       6692.0649       1.7032026
       6692.7778       1.6455215
       6693.4907       1.4740785
       6694.2036       1.4997221
       6694.9165       1.5275139
       6695.6294       1.5544178
       6696.3423       1.5120500
       6697.0552       1.7905072
       6697.7681       1.3925604
       6698.4810       1.5976520
       6699.1939       1.3775685
       6699.9068       1.5240810
       6700.6198       1.6915844
       6701.3327       1.4541251
       6702.0456       1.5503084
       6702.7585       1.3780835
       6703.4714       1.6133262
       6704.1843       1.4655364
       6704.8972       1.2631708
       6705.6101       1.4851465
       6706.3230       1.8012293
       6707.0359       1.6978637
       6707.7488       1.6232387
       6708.4617       1.4776444
       6709.1746       1.5331017
       6709.8876       1.3912762
       6710.6005       1.6292827
       6711.3134       1.6281652
       6712.0263       1.4922220
       6712.7392       1.4884328
       6713.4521       2.0299543
       6714.1650       1.3304507
       6714.8779       1.7150596
       6715.5908       1.5042624
       6716.3037       1.2600845
       6717.0166       1.6977820
       6717.7295       1.9221069
       6718.4424       1.6101296
       6719.1554       1.2602521
       6719.8683       1.7037118
       6720.5812       1.9208197
       6721.2941       2.2876340
       6722.0070       2.5991822
       6722.7199       3.0285125
       6723.4328       2.9854604
       6724.1457       2.9745157
       6724.8586       2.8071388
       6725.5715       2.4907207
       6726.2844       2.3935245
       6726.9973       1.9985058
       6727.7102       1.7459721
       6728.4232       1.7703801
       6729.1361       1.8475961
       6729.8490       1.4232462
       6730.5619       1.4580908
       6731.2748       1.3254950
       6731.9877       1.6211197
       6732.7006       1.4143578
       6733.4135       1.4585819
       6734.1264       1.3707300
       6734.8393       1.2945704
       6735.5522       1.5559707
       6736.2651       1.3352642
       6736.9780       1.2554758
       6737.6909       1.3257216
       6738.4039       1.3086866
       6739.1168       1.1026766
       6739.8297       1.1909842
       6740.5426       1.0769698
       6741.2555      0.79700902
       6741.9684      0.75486861
       6742.6813      0.43498212
       6743.3942      0.58351269
       6744.1071      0.53484672
       6744.8200             NaN
       6745.5329             NaN
       6746.2458             NaN
       6746.9587             NaN
       6747.6717             NaN
       6748.3846             NaN
       6749.0975             NaN
       6749.8104             NaN
       6750.5233             NaN
       6751.2362             NaN
       6751.9491             NaN
       6752.6620             NaN
       6753.3749             NaN
       6754.0878             NaN
       6754.8007             NaN
       6755.5136             NaN
       6756.2265             NaN
       6756.9395             NaN
       6757.6524             NaN
       6758.3653             NaN
       6759.0782             NaN
       6759.7911             NaN
       6760.5040             NaN
       6761.2169             NaN
       6761.9298             NaN
       6762.6427             NaN
       6763.3556             NaN
       6764.0685             NaN
       6764.7814             NaN
       6765.4943             NaN
       6766.2073             NaN
       6766.9202             NaN
       6767.6331             NaN
       6768.3460             NaN
       6769.0589             NaN
       6769.7718             NaN
       6770.4847             NaN
       6771.1976             NaN
       6771.9105             NaN
       6772.6234             NaN
       6773.3363             NaN
       6774.0492             NaN
       6774.7621             NaN
       6775.4751             NaN
       6776.1880             NaN
       6776.9009             NaN
       6777.6138             NaN
       6778.3267             NaN
       6779.0396             NaN
       6779.7525             NaN
       6780.4654             NaN
       6781.1783             NaN
       6781.8912             NaN
       6782.6041             NaN
       6783.3170             NaN
       6784.0299             NaN
       6784.7429             NaN
       6785.4558             NaN
       6786.1687             NaN
       6786.8816             NaN
       6787.5945             NaN
       6788.3074             NaN
       6789.0203             NaN
       6789.7332             NaN
       6790.4461             NaN
       6791.1590             NaN
       6791.8719             NaN
       6792.5848             NaN
       6793.2977             NaN
       6794.0107             NaN
       6794.7236             NaN
       6795.4365             NaN
       6796.1494             NaN
       6796.8623             NaN
       6797.5752             NaN
       6798.2881             NaN
       6799.0010             NaN
       6799.7139             NaN
       6800.4268             NaN
       6801.1397             NaN
       6801.8526             NaN
       6802.5655             NaN
       6803.2784             NaN
       6803.9914             NaN
       6804.7043             NaN
       6805.4172             NaN
       6806.1301             NaN
       6806.8430             NaN
       6807.5559             NaN
       6808.2688             NaN
       6808.9817             NaN
       6809.6946             NaN
       6810.4075             NaN
       6811.1204             NaN
       6811.8333             NaN
       6812.5462             NaN
       6813.2592             NaN
       6813.9721             NaN
       6814.6850             NaN
       6815.3979             NaN
       6816.1108             NaN
       6816.8237             NaN
       6817.5366             NaN
       6818.2495             NaN
       6818.9624             NaN
       6819.6753             NaN
       6820.3882             NaN
       6821.1011             NaN
       6821.8140             NaN
       6822.5270             NaN
       6823.2399             NaN
       6823.9528             NaN
       6824.6657             NaN
       6825.3786             NaN
       6826.0915             NaN
       6826.8044             NaN
       6827.5173             NaN
       6828.2302             NaN
       6828.9431             NaN
       6829.6560             NaN
       6830.3689             NaN
       6831.0818             NaN
       6831.7948             NaN
       6832.5077             NaN
       6833.2206             NaN
       6833.9335             NaN
       6834.6464             NaN
       6835.3593             NaN
       6836.0722             NaN
       6836.7851             NaN
       6837.4980             NaN
       6838.2109             NaN
       6838.9238       1.7113693
       6839.6367       1.9962189
       6840.3496       2.1955320
       6841.0626       1.7712742
       6841.7755       1.3358229
       6842.4884       1.3530054
       6843.2013       1.8915056
       6843.9142       2.2270827
       6844.6271       1.2583790
       6845.3400       1.8682989
       6846.0529       1.9628747
       6846.7658       1.5132083
       6847.4787       1.7491460
       6848.1916       2.0185486
       6848.9045       1.9731717
       6849.6174       1.5097407
       6850.3304       1.5211853
       6851.0433       1.6086103
       6851.7562       1.6151665
       6852.4691       1.7750909
       6853.1820       1.5951957
       6853.8949       1.7734678
       6854.6078       1.5613204
       6855.3207       1.5359601
       6856.0336       1.7630482
       6856.7465       1.5669813
       6857.4594       1.8067214
       6858.1723       1.4789205
       6858.8852       1.4562380
       6859.5982       1.5267321
       6860.3111       1.6086468
       6861.0240       1.4754992
       6861.7369       1.6630318
       6862.4498       1.2938445
       6863.1627       1.6075650
       6863.8756       1.6616283
       6864.5885       1.6251485
       6865.3014       1.4674105
       6866.0143       1.4787175
       6866.7272       1.5568959
       6867.4401       1.6616195
       6868.1530       1.5820797
       6868.8659       1.4880771
       6869.5789       1.4795862
       6870.2918       1.2950123
       6871.0047       1.3234653
       6871.7176       1.5212738
       6872.4305       2.0859458
       6873.1434       2.2756704
       6873.8563      0.86771724
       6874.5692       1.0230686
       6875.2821      0.96561716
       6875.9950       1.5771772
       6876.7079      0.72650470
       6877.4208      0.28993009
       6878.1337       1.0088882
       6878.8467       1.7462197
       6879.5596       1.4810486
       6880.2725       1.5802357
       6880.9854       1.8343819
       6881.6983       1.6977298
       6882.4112       1.5313621
       6883.1241       1.6558744
       6883.8370       1.6693068
       6884.5499       1.6947403
       6885.2628       1.8741681
       6885.9757       1.8903817
       6886.6886       1.3827059
       6887.4015       1.5066297
       6888.1145       1.5430762
       6888.8274       1.5274615
       6889.5403       1.5000924
       6890.2532       1.5761552
       6890.9661       1.7531131
       6891.6790       1.6234251
       6892.3919       1.6433665
       6893.1048       1.5840273
       6893.8177       1.6010021
       6894.5306       1.8863865
       6895.2435       1.6147953
       6895.9564       1.4907664
       6896.6693       1.5024085
       6897.3823       1.4437342
       6898.0952       1.4869225
       6898.8081       1.3855550
       6899.5210       1.7519040
       6900.2339       1.6021811
       6900.9468       1.4478093
       6901.6597       1.3239630
       6902.3726       1.7153352
       6903.0855       1.5159845
       6903.7984       1.5263328
       6904.5113       1.8803143
       6905.2242       1.6409882
       6905.9371       1.7631485
       6906.6501       1.6363995
       6907.3630       1.4991458
       6908.0759       1.4459225
       6908.7888       1.4554215
       6909.5017       1.5782365
       6910.2146       1.8253412
       6910.9275       1.6849929
       6911.6404       2.0133465
       6912.3533       1.7176160
       6913.0662       1.4603722
       6913.7791       1.5404515
       6914.4920       1.7339663
       6915.2049       1.4847385
       6915.9179       1.7693805
       6916.6308       1.3536624
       6917.3437       1.4949858
       6918.0566       1.7050637
       6918.7695       1.6064590
       6919.4824       1.6166275
       6920.1953       1.4884446
       6920.9082       1.4081867
       6921.6211       1.5910836
       6922.3340       1.4476765
       6923.0469       1.6742995
       6923.7598       2.2336118
       6924.4727       1.7131983
       6925.1857       1.4062299
       6925.8986       1.5295427
       6926.6115       1.6510126
       6927.3244       1.5975409
       6928.0373       1.7029277
       6928.7502       1.5236441
       6929.4631       1.5068327
       6930.1760       1.7479239
       6930.8889       1.5378056
       6931.6018       1.5630950
       6932.3147       1.4037008
       6933.0276       1.6450035
       6933.7405       1.5197402
       6934.4534      0.93725439
       6935.1664       1.6127907
       6935.8793       1.4219295
       6936.5922       2.0017704
       6937.3051      0.93804136
       6938.0180       1.8412213
       6938.7309       1.8759111
       6939.4438       1.5479141
       6940.1567       2.1237634
       6940.8696       1.9749945
       6941.5825       1.5170605
       6942.2954       1.6240354
       6943.0083       1.7909762
       6943.7212       1.6225029
       6944.4342       1.6548224
       6945.1471       1.5943451
       6945.8600       1.5368891
       6946.5729       1.4758404
       6947.2858       1.5255590
       6947.9987       1.6055210
       6948.7116       1.5285018
       6949.4245       1.4482224
       6950.1374       1.5677187
       6950.8503       1.5787115
       6951.5632       1.2870509
       6952.2761       1.6502252
       6952.9890       1.8552343
       6953.7020       1.5777156
       6954.4149       1.8535041
       6955.1278       1.7213215
       6955.8407       1.6251161
       6956.5536       1.7836948
       6957.2665       1.8423166
       6957.9794       1.6048766
       6958.6923       1.5687259
       6959.4052       1.6517916
       6960.1181       1.4961929
       6960.8310       1.6078589
       6961.5439       1.6120932
       6962.2568       1.5149549
       6962.9698       1.3238466
       6963.6827       1.4982411
       6964.3956       1.6302519
       6965.1085       1.6093268
       6965.8214       1.7313345
       6966.5343       2.1240159
       6967.2472       1.3920851
       6967.9601       1.6502817
       6968.6730       1.6047236
       6969.3859       1.2622135
       6970.0988       1.3466051
       6970.8117       1.4638456
       6971.5246       1.7096928
       6972.2376       1.5966954
       6972.9505       1.8059360
       6973.6634       1.4593614
       6974.3763       1.9919289
       6975.0892       1.6369837
       6975.8021       1.6245171
       6976.5150       1.4863351
       6977.2279       1.8071735
       6977.9408       1.6093966
       6978.6537       1.7272667
       6979.3666       1.9838285
       6980.0795       1.6340347
       6980.7924       1.7488783
       6981.5054       1.7942270
       6982.2183       1.5792237
       6982.9312       1.5450062
       6983.6441       1.3541993
       6984.3570       1.1377787
       6985.0699       1.6832703
       6985.7828       1.7021061
       6986.4957       1.7920932
       6987.2086       1.7682472
       6987.9215       1.4884672
       6988.6344       1.0454508
       6989.3473       1.9606888
       6990.0602       2.0897353
       6990.7732       1.5557564
       6991.4861       1.2435948
       6992.1990       1.6534825
       6992.9119       1.5841248
       6993.6248       1.4015654
       6994.3377       1.3067809
       6995.0506       1.4997127
       6995.7635       1.7719122
       6996.4764       1.6705004
       6997.1893       1.4669902
       6997.9022       1.6205550
       6998.6151       1.7454931
       6999.3280       1.5770014
       7000.0409       1.8855721
       7000.7539       1.4654210
       7001.4668       1.7614496
       7002.1797       1.5898144
       7002.8926       1.4308354
       7003.6055       1.7454085
       7004.3184       1.6439072
       7005.0313       1.5213197
       7005.7442       1.4463727
       7006.4571       1.4988229
       7007.1700       1.5040987
       7007.8829       1.5314098
       7008.5958       1.3759843
       7009.3087       1.3376697
       7010.0217       1.3943058
       7010.7346       1.4826759
       7011.4475       1.4319554
       7012.1604       1.3564906
       7012.8733       1.3989166
       7013.5862       1.2862616
       7014.2991       1.5403847
       7015.0120       1.3908668
       7015.7249       1.1804387
       7016.4378       1.4235827
       7017.1507       1.8049845
       7017.8636       2.4921529
       7018.5765       1.6048239
       7019.2895       1.7507971
       7020.0024       1.2935318
       7020.7153      0.96283267
       7021.4282      0.51180671
       7022.1411       1.4533014
       7022.8540       1.3330586
       7023.5669       1.5757504
       7024.2798       1.7452397
       7024.9927       1.5420682
       7025.7056       1.6760492
       7026.4185       1.6600382
       7027.1314       1.9783947
       7027.8443       1.6452822
       7028.5573       1.1730897
       7029.2702       1.7500985
       7029.9831       1.6869581
       7030.6960       1.5628259
       7031.4089       1.4440192
       7032.1218       1.7007921
       7032.8347       1.4369324
       7033.5476       1.7581059
       7034.2605       1.6110030
       7034.9734       1.4716727
       7035.6863       1.2776315
       7036.3992       1.3183781
       7037.1121       1.7978476
       7037.8251       1.5469966
       7038.5380       1.6479794
       7039.2509       1.7637211
       7039.9638       1.5642257
       7040.6767       1.4741098
       7041.3896       1.5300387
       7042.1025       1.5254649
       7042.8154       1.5140590
       7043.5283       1.5932526
       7044.2412       1.4116347
       7044.9541       1.2417098
       7045.6670       1.6010003
       7046.3799       1.5836318
       7047.0929       1.5120397
       7047.8058       1.5922498
       7048.5187       1.6684852
       7049.2316       1.7461267
       7049.9445       1.6849492
       7050.6574       1.4502860
       7051.3703       1.4170109
       7052.0832       1.9142152
       7052.7961       1.7197306
       7053.5090       1.4843888
       7054.2219       1.8903579
       7054.9348       1.6794399
       7055.6477       1.8267187
       7056.3607       1.6974841
       7057.0736       1.5887799
       7057.7865       1.5729503
       7058.4994       1.5351507
       7059.2123       1.5507373
       7059.9252       1.3720486
       7060.6381       1.4619351
       7061.3510       1.4959751
       7062.0639       1.4605049
       7062.7768       1.4760499
       7063.4897       1.7687632
       7064.2026       1.3756959
       7064.9155       1.5526839
       7065.6284       1.2857597
       7066.3414       1.3433604
       7067.0543       1.6669202
       7067.7672       1.6788830
       7068.4801       1.2460176
       7069.1930       1.8159096
       7069.9059       1.6128639
       7070.6188       1.6243757
       7071.3317       1.6470304
       7072.0446       1.5595608
       7072.7575       1.5286143
       7073.4704       1.6574351
       7074.1833       1.8196359
       7074.8962       1.4764262
       7075.6092       1.6424792
       7076.3221       1.7424488
       7077.0350       1.2642253
       7077.7479       1.5404376
       7078.4608       1.3771831
       7079.1737       1.6515812
       7079.8866       1.7495418
       7080.5995       1.5411081
       7081.3124       1.4698858
       7082.0253       1.4118249
       7082.7382       1.6378265
       7083.4511       1.5478171
       7084.1640       1.6414348
       7084.8770       1.5423448
       7085.5899       1.5120852
       7086.3028       1.6216367
       7087.0157       1.7313992
       7087.7286       2.1464338
       7088.4415       1.7530570
       7089.1544       1.3561207
       7089.8673       1.5997000
       7090.5802      0.99477362
       7091.2931       1.5523282
       7092.0060       1.3764505
       7092.7189       1.4323173
       7093.4318       1.3510069
       7094.1448       1.5737548
       7094.8577       1.7399755
       7095.5706       1.7176045
       7096.2835       1.6315557
       7096.9964       1.4598385
       7097.7093       1.4027736
       7098.4222       1.4443307
       7099.1351       1.4547316
       7099.8480       1.4525096
       7100.5609       1.6111789
       7101.2738       1.3167644
       7101.9867       1.3486455
       7102.6996       1.5735024
       7103.4126       1.5013837
       7104.1255       1.6045756
       7104.8384       1.5671466
       7105.5513       1.5040370
       7106.2642       1.8936362
       7106.9771       1.6553278
       7107.6900       1.2100468
       7108.4029       1.6336803
       7109.1158       1.5226610
       7109.8287       1.7989470
       7110.5416       1.9134085
       7111.2545       1.6880655
       7111.9674       1.7356413
       7112.6804       1.6472045
       7113.3933       1.6846598
       7114.1062       1.6947043
       7114.8191       1.8131061
       7115.5320       1.5538374
       7116.2449       1.7898071
       7116.9578       1.6431222
       7117.6707       1.7249088
       7118.3836       2.0529893
       7119.0965       2.0961246
       7119.8094       2.0568503
       7120.5223       1.6121627
       7121.2352       2.1305542
       7121.9482       1.7339006
       7122.6611       1.7776967
       7123.3740       1.5940218
       7124.0869       1.4197995
       7124.7998       1.5179376
       7125.5127       1.5922968
       7126.2256       1.3606014
       7126.9385       1.3999667
       7127.6514       1.3502582
       7128.3643       1.3517854
       7129.0772       1.2540165
       7129.7901       1.1609180
       7130.5030       1.1710859
       7131.2159       1.2167584
       7131.9289       1.2889389
       7132.6418       1.3372681
       7133.3547       1.5757985
       7134.0676       1.3582181
       7134.7805       1.3099869
       7135.4934       1.3905629
       7136.2063       1.6042155
       7136.9192       1.5648045
       7137.6321       1.4643136
       7138.3450       1.5880396
       7139.0579       1.4150491
       7139.7708       1.4683333
       7140.4837       1.6580861
       7141.1967       1.6993937
       7141.9096       1.6442434
       7142.6225       1.8999446
       7143.3354       1.9293494
       7144.0483       1.4160325
       7144.7612       1.5030791
       7145.4741       1.7494363
       7146.1870       1.8222474
       7146.8999       1.5639820
       7147.6128       1.7028900
       7148.3257       1.8297875
       7149.0386       2.0752726
       7149.7515       1.8102387
       7150.4645       2.0979075
       7151.1774       2.2131427
       7151.8903       2.4972503
       7152.6032       2.1201302
       7153.3161       2.1213687
       7154.0290       1.8499102
       7154.7419       1.9000293
       7155.4548       1.7221244
       7156.1677       1.5856546
       7156.8806       1.4540233
       7157.5935       1.8455424
       7158.3064       1.6804952
       7159.0193       1.3791882
       7159.7323       1.3381175
       7160.4452       1.3262815
       7161.1581       1.1755002
       7161.8710       1.3285197
       7162.5839       1.4597981
       7163.2968       1.1824569
       7164.0097       1.2936047
       7164.7226       1.2793556
       7165.4355       1.3501942
       7166.1484       1.2756383
       7166.8613       1.3912788
       7167.5742       1.4973531
       7168.2871       1.4483442
       7169.0001       1.3861496
       7169.7130       1.6266918
       7170.4259       1.7214737
       7171.1388       1.4877206
       7171.8517       1.5092415
       7172.5646       1.4963597
       7173.2775       1.4910237
       7173.9904       1.5216306
       7174.7033       1.3569645
       7175.4162       1.4088978
       7176.1291       1.3488956
       7176.8420       1.4186282
       7177.5549       1.6465651
       7178.2679       1.8245855
       7178.9808       1.7368840
       7179.6937       1.5296291
       7180.4066       1.7645485
       7181.1195       1.6926482
       7181.8324       1.6244945
       7182.5453       1.6850136
       7183.2582       1.4559116
       7183.9711       1.5110330
       7184.6840       1.4808274
       7185.3969       1.7281223
       7186.1098       1.8870345
       7186.8227       1.6279072
       7187.5357       1.8118707
       7188.2486       1.7305793
       7188.9615       1.7081217
       7189.6744       2.1034602
       7190.3873       2.1970897
       7191.1002       1.5788297
       7191.8131       1.7430316
       7192.5260       1.6479669
       7193.2389       1.5209641
       7193.9518       1.4685027
       7194.6647       1.5111749
       7195.3776       1.4871259
       7196.0905       1.4198402
       7196.8034       1.3276641
       7197.5164       1.2813348
       7198.2293       1.1568252
       7198.9422       1.1074590
       7199.6551       1.1288895
       7200.3680       1.1369029
       7201.0809       1.1303138
       7201.7938       1.1447731
       7202.5067       1.1170950
       7203.2196       1.1380845
       7203.9325       1.2344892
       7204.6454       1.2762064
       7205.3583       1.3196575
       7206.0712       1.3525218
       7206.7842       1.4234433
       7207.4971       1.3981271
       7208.2100       1.3972997
       7208.9229       1.5039244
       7209.6358       1.5501483
       7210.3487       1.4558634
       7211.0616       1.4866801
       7211.7745       1.4177561
       7212.4874       1.4856846
       7213.2003       1.8028139
       7213.9132       1.6692699
       7214.6261       1.6137852
       7215.3390       1.6913640
       7216.0520       1.4808424
       7216.7649       1.6744323
       7217.4778       1.8048308
       7218.1907       1.7696209
       7218.9036       1.8263716
       7219.6165       1.4324024
       7220.3294       1.5757564
       7221.0423       1.3512224
       7221.7552       1.5081054
       7222.4681       1.5102182
       7223.1810       1.5797878
       7223.8939       1.6009971
       7224.6068       1.7481208
       7225.3198       1.7146121
       7226.0327       1.5688330
       7226.7456       1.5122668
       7227.4585       1.2908614
       7228.1714       1.2814307
       7228.8843       1.5013485
       7229.5972       1.6429892
       7230.3101       1.8358850
       7231.0230       1.8286145
       7231.7359       1.6723978
       7232.4488       1.4615433
       7233.1617       1.6397198
       7233.8746       1.4542188
       7234.5876       1.5798509
       7235.3005       1.6188570
       7236.0134       1.7163884
       7236.7263       1.6956166
       7237.4392       1.4214901
       7238.1521       1.4297605
       7238.8650       1.5846050
       7239.5779       1.5771854
       7240.2908       1.5933878
       7241.0037       1.6008572
       7241.7166       1.6164589
       7242.4295       1.6725215
       7243.1424       1.5836429
       7243.8554       1.8129044
       7244.5683       1.6752459
       7245.2812       1.7419122
       7245.9941       1.6853552
       7246.7070       1.6677465
       7247.4199       1.6215549
       7248.1328       1.7720175
       7248.8457       1.7244288
       7249.5586       1.5331176
       7250.2715       1.5978763
       7250.9844       1.7616014
       7251.6973       1.6708737
       7252.4102       1.5059010
       7253.1232       1.5520157
       7253.8361       1.6012662
       7254.5490       1.4090373
       7255.2619       1.4907151
       7255.9748       1.4917014
       7256.6877       1.7103666
       7257.4006       1.6658205
       7258.1135       1.6420768
       7258.8264       1.7743785
       7259.5393       1.6789634
       7260.2522       1.7077839
       7260.9651       1.7642105
       7261.6780       1.5665842
       7262.3909       1.5766374
       7263.1039       1.7991965
       7263.8168       1.7726160
       7264.5297       1.7420750
       7265.2426       1.4893601
       7265.9555       1.4353182
       7266.6684       1.6252205
       7267.3813       1.6640223
       7268.0942       1.8248454
       7268.8071       1.5672077
       7269.5200       1.6621715
       7270.2329       1.5318211
       7270.9458       1.4400829
       7271.6587       1.3502262
       7272.3717       1.2940591
       7273.0846       1.6671401
       7273.7975       1.6515854
       7274.5104       1.5719017
       7275.2233       1.6408094
       7275.9362       1.5360549
       7276.6491       1.6562961
       7277.3620       1.7343149
       7278.0749       1.6124458
       7278.7878       1.7020979
       7279.5007       1.6756252
       7280.2136       1.5504811
       7280.9265       1.6828303
       7281.6395       1.6097206
       7282.3524       1.4829983
       7283.0653       1.7488531
       7283.7782       1.6724190
       7284.4911       1.5988020
       7285.2040       1.4291674
       7285.9169       1.8011768
       7286.6298       2.0779786
       7287.3427       1.8422412
       7288.0556       1.8258340
       7288.7685       1.6985154
       7289.4814       1.4682096
       7290.1943       1.5676863
       7290.9073       1.8221719
       7291.6202       1.9157693
       7292.3331       1.6382639
       7293.0460       1.5193811
       7293.7589       1.3968062
       7294.4718       1.5828353
       7295.1847       1.7268328
       7295.8976       1.4314406
       7296.6105       1.5153463
       7297.3234       1.4770673
       7298.0363       1.3156687
       7298.7492       1.2077239
       7299.4621       1.1718358
       7300.1751       1.1239812
       7300.8880       1.2120193
       7301.6009       1.3670557
       7302.3138       1.4635293
       7303.0267       1.4267317
       7303.7396       1.4976015
       7304.4525       1.6695516
       7305.1654       1.4422021
       7305.8783       1.6005156
       7306.5912       1.6808671
       7307.3041       1.6303441
       7308.0170       1.5317757
       7308.7299       1.8473636
       7309.4429       1.7278552
       7310.1558       1.6940053
       7310.8687       1.6372505
       7311.5816       1.3843979
       7312.2945       1.5312008
       7313.0074       1.4774885
       7313.7203       1.5589386
       7314.4332       1.5990731
       7315.1461       1.3940016
       7315.8590       1.3729149
       7316.5719       1.4043897
       7317.2848       1.3709580
       7317.9977       1.4565621
       7318.7107       1.5143961
       7319.4236       1.6088970
       7320.1365       1.7592075
       7320.8494       1.6053640
       7321.5623       1.4247390
       7322.2752       1.5011093
       7322.9881       1.5558828
       7323.7010       1.5255352
       7324.4139       1.5202487
       7325.1268       1.4608662
       7325.8397       1.4035720
       7326.5526       1.4801094
       7327.2655       1.7469453
       7327.9784       1.7411191
       7328.6914       1.6679104
       7329.4043       1.5290637
       7330.1172       1.5863426
       7330.8301       1.7586459
       7331.5430       1.5946425
       7332.2559       1.4582661
       7332.9688       1.5731938
       7333.6817       1.5608452
       7334.3946       1.5314751
       7335.1075       1.5019797
       7335.8204       1.5216730
       7336.5333       1.4714311
       7337.2462       1.3602729
       7337.9592       1.3725993
       7338.6721       1.4876857
       7339.3850       1.5543326
       7340.0979       1.4907309
       7340.8108       1.5296573
       7341.5237       1.5777951
       7342.2366       1.5735512
       7342.9495       1.4956749
       7343.6624       1.5608611
       7344.3753       1.1491675
       7345.0882      0.86532424
       7345.8011       2.0384819
       7346.5140       1.4216903
       7347.2270       1.2575528
       7347.9399       1.6018572
       7348.6528       1.6872761
       7349.3657       1.6412076
       7350.0786       1.2906372
       7350.7915       1.2694155
       7351.5044       1.3732230
       7352.2173       1.5662879
       7352.9302       1.4004363
       7353.6431       1.8405437
       7354.3560       1.6811202
       7355.0689       1.6089969
       7355.7818       1.2146736
       7356.4948       1.3085911
       7357.2077       1.5496590
       7357.9206       1.5064496
       7358.6335       1.4404904
       7359.3464       1.6552316
       7360.0593       2.1624344
       7360.7722       2.1646013
       7361.4851       1.6452898
       7362.1980       1.2827861
       7362.9109       1.3399292
       7363.6238       1.6487983
       7364.3367       1.5675188
       7365.0496       1.2684133
       7365.7626       1.3580630
       7366.4755       1.2794219
       7367.1884       1.5560965
       7367.9013       1.6480838
       7368.6142       1.3951868
       7369.3271       1.5430563
       7370.0400       1.5327535
       7370.7529       1.5395476
       7371.4658       1.6127291
       7372.1787       1.5328693
       7372.8916       1.4279944
       7373.6045       1.6914468
       7374.3174       1.5269629
       7375.0304       1.5431421
       7375.7433       1.5286713
       7376.4562       1.4676132
       7377.1691       1.2742649
       7377.8820       1.3378083
       7378.5949       1.5255132
       7379.3078       1.4229073
       7380.0207       1.3937088
       7380.7336       1.5647333
       7381.4465       1.4944231
       7382.1594       1.5079205
       7382.8723       1.3459729
       7383.5852       1.4386065
       7384.2982       1.7403040
       7385.0111       1.4587653
       7385.7240       1.5552650
       7386.4369       1.5541897
       7387.1498       1.5232012
       7387.8627       1.5552075
       7388.5756       1.4120548
       7389.2885       1.4728683
       7390.0014       1.6147981
       7390.7143       1.4860074
       7391.4272       1.4451586
       7392.1401       1.4373290
       7392.8530       1.5759659
       7393.5659       1.5427376
       7394.2789       1.4087312
       7394.9918       1.4478945
       7395.7047       1.5149861
       7396.4176       1.3654314
       7397.1305       1.2661345
       7397.8434       1.4074846
       7398.5563       1.6071601
       7399.2692       1.4515769
       7399.9821       1.5423252
       7400.6950       1.4206222
       7401.4079       1.2382976
       7402.1208       2.0078254
       7402.8337       1.8528720
       7403.5467       1.1719186
       7404.2596       1.6794572
       7404.9725       1.7752208
       7405.6854       2.4597769
       7406.3983       2.6820424
       7407.1112       2.1262940
       7407.8241       1.5640969
       7408.5370       2.1023995
       7409.2499       2.1573856
       7409.9628       1.4016622
       7410.6757       1.6058102
       7411.3886       1.7831940
       7412.1015       2.1737544
       7412.8145       2.2185555
       7413.5274       2.5289384
       7414.2403       1.9819773
       7414.9532       1.4920966
       7415.6661       1.5487944
       7416.3790       1.3918417
       7417.0919       1.3012517
       7417.8048       1.3386443
       7418.5177       1.3987705
       7419.2306       1.1616997
       7419.9435       1.2960604
       7420.6564       1.4582510
       7421.3693       1.4514629
       7422.0823       1.6065374
       7422.7952       1.2765867
       7423.5081       1.2204341
       7424.2210       1.5835051
       7424.9339       1.4631629
       7425.6468       1.5283445
       7426.3597       1.4566314
       7427.0726       1.3986509
       7427.7855       1.3759129
       7428.4984       1.2528945
       7429.2113       1.3936983
       7429.9242       1.4969010
       7430.6371       1.5022462
       7431.3501       1.4242450
       7432.0630       1.2449230
       7432.7759       1.2528005
       7433.4888       1.2540802
       7434.2017       1.3763950
       7434.9146       1.1280551
       7435.6275       1.3396944
       7436.3404       1.7069356
       7437.0533       1.6518617
       7437.7662       1.5797685
       7438.4791       1.3756960
       7439.1920       1.4214133
       7439.9049       1.5074992
       7440.6179       1.6150377
       7441.3308       1.4961551
       7442.0437       1.4160364
       7442.7566       1.4396948
       7443.4695       1.4844790
       7444.1824       1.4293024
       7444.8953       1.3237580
       7445.6082       1.4239569
       7446.3211       1.4541190
       7447.0340       1.4406580
       7447.7469       1.3272833
       7448.4598       1.3230629
       7449.1727       1.4513578
       7449.8856       1.6479352
       7450.5986       1.7118086
       7451.3115       1.3970538
       7452.0244      0.85588361
       7452.7373       1.2837009
       7453.4502       1.4820101
       7454.1631       1.5874291
       7454.8760       1.1432122
       7455.5889       1.2964456
       7456.3018       1.3898622
       7457.0147       1.5040674
       7457.7276       1.3122003
       7458.4405       1.3248976
       7459.1534       1.3285777
       7459.8664       1.2808887
       7460.5793       1.3107136
       7461.2922       1.3348533
       7462.0051       1.3187490
       7462.7180       1.2936353
       7463.4309       1.3626760
       7464.1438       1.2674790
       7464.8567       1.2515387
       7465.5696       1.2813216
       7466.2825       1.1283757
       7466.9954       1.0935390
       7467.7083      0.84640666
       7468.4212      0.52038374
       7469.1342       1.2639636
       7469.8471       1.9987373
       7470.5600       1.6118321
       7471.2729       1.6691620
       7471.9858       1.5145994
       7472.6987       1.3838694
       7473.4116       1.2980029
       7474.1245       1.2545120
       7474.8374       1.4880848
       7475.5503       1.2725674
       7476.2632       1.3715122
       7476.9761       1.4371697
       7477.6890       1.5862639
       7478.4020       1.7099466
       7479.1149       1.4760985
       7479.8278       2.0286015
       7480.5407       1.7746493
       7481.2536       1.2543814
       7481.9665       1.3425065
       7482.6794       1.1743532
       7483.3923      0.84351651
       7484.1052       1.2482952
       7484.8181       1.2531482
       7485.5310       1.3604012
       7486.2439       1.2698508
       7486.9568       1.3595166
       7487.6698       1.4181569
       7488.3827       1.3465306
       7489.0956       1.2666463
       7489.8085       1.3148410
       7490.5214       1.3363271
       7491.2343       1.2361853
       7491.9472       1.2029574
       7492.6601       1.2308946
       7493.3730       1.2537463
       7494.0859       1.4411461
       7494.7988       1.4614361
       7495.5117       1.2633357
       7496.2246       1.1915781
       7496.9376       1.2491000
       7497.6505       1.1914330
       7498.3634       1.5504864
       7499.0763       1.2532081
       7499.7892       1.0448466
       7500.5021       1.1141523
       7501.2150       1.5859582
       7501.9279       1.6683640
       7502.6408       1.3569919
       7503.3537       1.1976558
       7504.0666       1.3578864
       7504.7795       1.2502700
       7505.4924       1.2926394
       7506.2054       1.3211749
       7506.9183       1.1996144
       7507.6312       1.1348447
       7508.3441       1.2941634
       7509.0570       1.3248066
       7509.7699       1.3832845
       7510.4828       1.7530466
       7511.1957       1.6068174
       7511.9086       2.0223546
       7512.6215       1.5574225
       7513.3344       2.3758893
       7514.0473       3.7789289
       7514.7602       2.9997540
       7515.4731       2.2704088
       7516.1861       1.5644504
       7516.8990       1.3793672
       7517.6119       1.2254436
       7518.3248       1.2413891
       7519.0377       1.2015470
       7519.7506       1.1843625
       7520.4635       1.1730615
       7521.1764       1.1958982
       7521.8893       1.4368146
       7522.6022       1.2864092
       7523.3151       1.2257894
       7524.0280       1.4428664
       7524.7409       1.2272192
       7525.4539       1.1218264
       7526.1668       1.2343443
       7526.8797       1.2158618
       7527.5926       1.2038772
       7528.3055       1.1882491
       7529.0184       1.1078161
       7529.7313       1.2655890
       7530.4442       1.3175706
       7531.1571       1.1558922
       7531.8700       1.1362226
       7532.5829       1.1132745
       7533.2958       1.0717376
       7534.0087       1.2880336
       7534.7217       1.2714682
       7535.4346       1.1518384
       7536.1475       1.2628063
       7536.8604       1.3300833
       7537.5733       1.3047959
       7538.2862      0.96981229
       7538.9991       1.0365163
       7539.7120       1.3831282
       7540.4249       1.1979694
       7541.1378       1.2063688
       7541.8507       1.2458094
       7542.5636       1.2560093
       7543.2765       1.0815238
       7543.9895       1.1853389
       7544.7024       1.1805273
       7545.4153       1.2093454
       7546.1282       1.1947950
       7546.8411       1.1689327
       7547.5540       1.1468256
       7548.2669       1.3359785
       7548.9798       1.4943871
       7549.6927       1.5663993
       7550.4056       1.0700017
       7551.1185       1.1554842
       7551.8314       1.2730271
       7552.5443       1.0840777
       7553.2573       1.1933808
       7553.9702       1.1159587
       7554.6831       1.1724127
       7555.3960       1.2626979
       7556.1089       1.2550065
       7556.8218       1.2031880
       7557.5347       1.1595935
       7558.2476       1.1041202
       7558.9605       1.1467137
       7559.6734       1.1925431
       7560.3863       1.2253348
       7561.0992       1.2190053
       7561.8121       1.2822025
       7562.5251       1.1302428
